time[s];Vsg[mV];pH/ion concentration [mM]
5.26;2339.10;-3.340
10.25;2339.40;-3.350
15.23;2338.55;-3.330
20.22;2338.55;-3.330
25.21;2339.90;-3.360
30.20;2338.90;-3.340
35.18;2339.40;-3.350
40.17;2340.15;-3.360
45.16;2339.35;-3.350
50.14;2341.10;-3.380
55.13;2342.25;-3.400
60.12;2343.05;-3.410
65.10;2344.00;-3.430
70.03;2344.41;-3.438
75.02;2345.23;-3.450
80.01;2345.75;-3.460
85.27;2346.40;-3.470
90.26;2346.75;-3.480
95.25;2346.85;-3.480
100.24;2346.95;-3.480
105.22;2346.65;-3.470
110.21;2346.65;-3.470
115.19;2346.10;-3.470
120.18;2345.55;-3.460
125.14;2345.65;-3.460
130.10;2345.70;-3.460
135.09;2345.65;-3.460
140.07;2345.95;-3.460
145.06;2345.95;-3.460
150.05;2346.35;-3.470
155.03;2346.30;-3.470
160.02;2346.30;-3.470
165.01;2346.40;-3.470
170.27;2346.50;-3.470
175.21;2346.70;-3.480
180.20;2346.60;-3.470
185.18;2346.80;-3.480
190.17;2346.75;-3.480
195.15;2347.00;-3.480
200.12;2346.95;-3.480
205.07;2347.05;-3.480
210.06;2347.40;-3.490
215.04;2347.55;-3.490
220.03;2347.50;-3.490
225.02;2347.70;-3.490
230.01;2347.80;-3.500
235.59;2348.10;-3.500
240.58;2348.01;-3.500
245.57;2348.17;-3.500
250.55;2348.20;-3.500
255.54;2348.31;-3.500
260.53;2348.46;-3.508
265.51;2348.39;-3.508
270.50;2348.49;-3.510
275.49;2348.70;-3.510
280.47;2348.99;-3.520
285.46;2348.96;-3.520
290.45;2348.92;-3.512
295.43;2349.16;-3.520
300.42;2349.23;-3.520
305.41;2349.22;-3.520
310.39;2349.44;-3.520
315.38;2349.50;-3.520
320.37;2349.56;-3.528
325.36;2349.57;-3.530
330.34;2349.90;-3.530
335.33;2349.90;-3.530
340.26;2349.99;-3.530
345.25;2349.88;-3.530
350.23;2350.05;-3.536
355.22;2350.20;-3.540
360.21;2349.93;-3.532
365.19;2350.47;-3.540
370.18;2350.52;-3.540
375.17;2350.59;-3.540
380.15;2350.27;-3.534
385.14;2350.73;-3.544
390.13;2348.88;-3.514
395.11;2351.14;-3.556
400.10;2351.08;-3.550
405.09;2348.74;-3.508
410.07;2351.12;-3.554
415.06;2349.31;-3.524
420.05;2350.63;-3.546
425.03;2350.87;-3.548
430.02;2352.03;-3.570
435.01;2350.62;-3.546
440.28;2349.35;-3.520
445.26;2343.20;-3.410
450.25;2347.00;-3.480
455.23;2350.80;-3.550
460.22;2350.80;-3.550
465.21;2359.50;-3.700
470.19;2358.00;-3.670
475.18;2357.80;-3.670
480.17;2353.20;-3.590
485.15;2358.20;-3.680
490.14;2350.05;-3.530
495.12;2352.15;-3.570
500.06;2336.70;-3.300
505.04;2350.65;-3.540
510.03;2336.60;-3.300
515.02;2358.60;-3.680
520.00;2350.10;-3.540
525.27;2352.85;-3.580
530.26;2352.75;-3.580
535.25;2352.95;-3.590
540.23;2352.80;-3.580
545.22;2352.80;-3.580
550.21;2353.85;-3.600
555.19;2355.00;-3.620
560.12;2361.10;-3.730
565.11;2353.20;-3.590
570.05;2353.30;-3.590
575.03;2350.30;-3.540
580.01;2353.15;-3.590
585.60;2353.35;-3.590
590.59;2353.23;-3.586
595.57;2353.38;-3.590
600.56;2353.72;-3.600
605.55;2353.43;-3.590
610.53;2353.57;-3.600
615.50;2353.70;-3.600
620.45;2354.35;-3.610
625.40;2354.85;-3.620
630.37;2355.62;-3.632
635.35;2356.29;-3.640
640.34;2356.24;-3.642
645.33;2356.41;-3.650
650.31;2355.92;-3.642
655.30;2356.68;-3.652
660.29;2356.70;-3.652
665.27;2357.47;-3.662
670.26;2357.82;-3.670
675.25;2357.95;-3.670
680.23;2358.18;-3.680
685.22;2358.38;-3.680
690.21;2358.69;-3.690
695.19;2359.20;-3.698
700.18;2359.19;-3.692
705.17;2359.67;-3.700
710.15;2360.02;-3.710
715.14;2359.99;-3.710
720.13;2360.49;-3.720
725.11;2360.49;-3.720
730.10;2360.67;-3.720
735.09;2361.00;-3.730
740.08;2361.25;-3.730
745.06;2361.35;-3.732
750.05;2361.62;-3.740
755.03;2361.80;-3.740
760.02;2362.02;-3.742
765.01;2361.61;-3.738
770.28;2361.45;-3.730
775.27;2361.55;-3.740
780.25;2361.55;-3.740
785.24;2361.50;-3.740
790.23;2361.45;-3.730
795.21;2361.70;-3.740
800.20;2361.80;-3.740
805.19;2361.65;-3.740
810.17;2361.70;-3.740
815.16;2361.90;-3.740
820.15;2361.90;-3.740
825.14;2361.90;-3.740
830.12;2362.05;-3.750
835.11;2362.20;-3.750
840.09;2362.20;-3.750
845.08;2362.50;-3.750
850.07;2362.60;-3.750
855.06;2362.70;-3.760
860.04;2362.80;-3.760
865.03;2362.90;-3.760
870.02;2362.95;-3.760
875.00;2363.10;-3.760
880.27;2363.20;-3.770
885.26;2363.55;-3.770
890.25;2363.45;-3.770
895.19;2363.50;-3.770
900.16;2363.50;-3.770
905.15;2363.75;-3.770
910.14;2363.65;-3.770
915.12;2363.85;-3.780
920.11;2363.90;-3.780
925.10;2364.15;-3.780
930.08;2364.10;-3.780
935.07;2364.35;-3.790
940.06;2364.40;-3.790
945.05;2364.45;-3.790
950.03;2364.35;-3.790
955.02;2364.75;-3.790
960.00;2364.35;-3.790
965.59;2364.63;-3.790
970.58;2364.84;-3.790
975.57;2365.01;-3.800
980.55;2365.27;-3.800
985.54;2365.17;-3.800
990.53;2365.30;-3.800
995.51;2365.54;-3.806
1000.50;2365.54;-3.810
1005.49;2365.64;-3.810
1010.47;2365.67;-3.810
1015.46;2365.79;-3.810
1020.45;2365.91;-3.810
1025.43;2366.03;-3.816
1030.42;2366.19;-3.820
1035.41;2366.20;-3.820
1040.40;2366.33;-3.820
1045.38;2366.48;-3.820
1050.37;2366.37;-3.820
1055.35;2366.59;-3.824
1060.34;2366.56;-3.824
1065.33;2366.64;-3.824
1070.31;2366.73;-3.830
1075.30;2366.83;-3.830
1080.29;2366.88;-3.830
1085.28;2367.20;-3.840
1090.26;2367.05;-3.830
1095.25;2367.20;-3.840
1100.23;2367.16;-3.834
1105.22;2367.36;-3.840
1110.21;2367.40;-3.840
1115.19;2367.57;-3.840
1120.18;2367.54;-3.840
1125.17;2367.54;-3.840
1130.15;2367.53;-3.840
1135.14;2367.82;-3.850
1140.13;2367.75;-3.840
1145.06;2367.72;-3.840
1150.04;2367.83;-3.844
1155.03;2368.12;-3.850
1160.02;2368.09;-3.850
1165.00;2368.07;-3.850
1170.27;2368.30;-3.850
1175.26;2368.25;-3.850
1180.21;2368.40;-3.860
1185.18;2368.65;-3.860
1190.17;2368.55;-3.860
1195.15;2368.55;-3.860
1200.14;2368.55;-3.860
1205.12;2368.60;-3.860
1210.11;2368.70;-3.860
1215.09;2368.70;-3.860
1220.08;2368.75;-3.860
1225.07;2368.60;-3.860
1230.06;2368.90;-3.870
1235.04;2369.10;-3.870
1240.03;2369.25;-3.870
1245.01;2369.30;-3.870
1250.00;2369.15;-3.870
1255.27;2369.35;-3.870
1260.26;2369.40;-3.870
1265.24;2369.15;-3.870
1270.23;2369.45;-3.870
1275.21;2369.00;-3.870
1280.20;2369.50;-3.880
1285.19;2373.00;-3.940
1290.17;2231.50;-1.450
1295.16;2370.00;-3.880
1300.12;2374.50;-3.960
1305.08;2370.90;-3.900
1310.06;2373.30;-3.940
1315.60;2359.80;-3.704
1320.59;2365.79;-3.812
1325.52;2368.31;-3.852
1330.50;2370.38;-3.892
1335.49;2370.72;-3.900
1340.47;2372.17;-3.926
1345.46;2370.95;-3.906
1350.45;2371.71;-3.918
1355.43;2371.56;-3.910
1360.42;2372.09;-3.920
1365.41;2371.85;-3.920
1370.39;2372.45;-3.930
1375.38;2372.42;-3.930
1380.37;2372.86;-3.938
1385.35;2371.91;-3.920
1390.34;2371.94;-3.920
1395.33;2371.85;-3.920
1400.31;2371.75;-3.918
1405.30;2371.78;-3.920
1410.28;2371.81;-3.920
1415.27;2371.84;-3.920
1420.26;2372.17;-3.920
1425.24;2371.98;-3.920
1430.23;2371.96;-3.920
1435.22;2372.22;-3.920
1440.20;2372.26;-3.922
1445.19;2372.30;-3.928
1450.18;2372.36;-3.930
1455.16;2372.44;-3.930
1460.15;2372.38;-3.928
1465.14;2372.44;-3.930
1470.12;2372.34;-3.928
1475.11;2372.51;-3.930
1480.09;2372.62;-3.930
1485.08;2372.64;-3.930
1490.07;2372.89;-3.938
1495.06;2372.84;-3.930
1500.04;2372.79;-3.930
1505.03;2372.97;-3.940
1510.01;2372.98;-3.940
1515.28;2372.90;-3.940
1520.27;2373.25;-3.940
1525.26;2373.35;-3.940
1530.24;2373.40;-3.940
1535.23;2373.10;-3.940
1540.21;2373.35;-3.940
1545.20;2373.40;-3.940
1550.19;2373.45;-3.940
1555.18;2373.60;-3.950
1560.16;2373.65;-3.950
1565.15;2373.55;-3.950
1570.13;2373.55;-3.950
1575.12;2373.80;-3.950
1580.08;2373.85;-3.950
1585.04;2373.95;-3.950
1590.02;2373.95;-3.950
1595.01;2373.95;-3.950
1600.28;2374.05;-3.960
1605.27;2374.05;-3.960
1610.25;2374.15;-3.960
1615.24;2374.20;-3.960
1620.22;2374.05;-3.960
1625.21;2374.15;-3.960
1630.20;2374.35;-3.960
1635.18;2374.50;-3.960
1640.17;2374.35;-3.960
1645.16;2374.55;-3.960
1650.14;2374.35;-3.960
1655.13;2374.60;-3.970
1660.12;2374.60;-3.970
1665.10;2374.60;-3.970
1670.09;2374.55;-3.960
1675.07;2374.70;-3.970
1680.06;2374.90;-3.970
1685.03;2374.70;-3.970
1690.58;2374.84;-3.970
1695.56;2374.86;-3.970
1700.55;2375.03;-3.970
1705.53;2374.89;-3.970
1710.52;2374.98;-3.970
1715.51;2375.19;-3.974
1720.49;2375.00;-3.970
1725.48;2375.04;-3.970
1730.47;2375.12;-3.976
1735.45;2375.29;-3.980
1740.44;2375.24;-3.976
1745.02;2375.45;-3.980
1750.58;2375.30;-3.980
1755.57;2375.40;-3.980
1760.55;2375.70;-3.980
1765.54;2375.40;-3.980
1770.53;2375.30;-3.980
1775.51;2375.45;-3.980
1780.46;2375.59;-3.980
1785.43;2375.28;-3.980
1790.42;2375.67;-3.980
1795.40;2375.64;-3.980
1800.39;2375.65;-3.980
1805.37;2375.63;-3.982
1810.36;2375.82;-3.990
1815.34;2375.72;-3.982
1820.33;2375.82;-3.990
1825.32;2376.05;-3.990
1830.30;2375.86;-3.988
1835.29;2376.00;-3.990
1840.28;2375.99;-3.990
1845.26;2376.00;-3.990
1850.25;2376.25;-3.998
1855.23;2376.07;-3.990
1860.22;2376.06;-3.990
1865.20;2376.26;-3.992
1870.19;2376.10;-3.992
1875.18;2376.15;-3.990
1880.16;2376.10;-3.992
1885.15;2376.31;-4.000
1890.13;2376.24;-3.998
1895.12;2376.23;-3.992
1900.10;2376.14;-3.992
1905.09;2376.31;-4.000
1910.07;2376.28;-3.998
1915.06;2376.45;-4.000
1920.05;2376.43;-4.000
1925.03;2375.98;-3.992
1930.02;2376.46;-4.000
1935.01;2373.49;-3.944
1940.27;2376.85;-4.000
1945.26;2367.50;-3.840
1950.19;2369.85;-3.880
1955.15;2375.70;-3.980
1960.10;2373.35;-3.940
1965.05;2375.60;-3.980
1970.02;2376.10;-3.990
1975.01;2377.55;-4.020
1980.27;2378.45;-4.030
1985.26;2378.05;-4.030
1990.20;2378.30;-4.030
1995.18;2378.50;-4.030
2000.16;2378.70;-4.040
2005.15;2378.95;-4.040
2010.13;2379.65;-4.050
2015.12;2378.90;-4.040
2020.10;2378.85;-4.040
2025.09;2378.00;-4.020
2030.07;2378.00;-4.020
2035.06;2377.85;-4.020
2040.05;2377.90;-4.020
2045.03;2378.05;-4.030
2050.02;2378.05;-4.030
2055.00;2378.15;-4.030
2060.59;2378.17;-4.030
2065.58;2377.92;-4.024
2070.56;2378.35;-4.030
2075.55;2378.21;-4.030
2080.53;2378.13;-4.030
2085.52;2378.27;-4.030
2090.51;2378.13;-4.030
2095.49;2378.14;-4.024
2100.48;2378.27;-4.030
2105.46;2378.67;-4.036
2110.45;2378.38;-4.030
2115.44;2378.25;-4.030
2120.42;2378.55;-4.034
2125.41;2378.51;-4.030
2130.40;2378.52;-4.030
2135.38;2378.59;-4.036
2140.37;2378.67;-4.040
2145.35;2378.69;-4.040
2150.34;2378.80;-4.040
2155.33;2378.89;-4.040
2160.31;2378.93;-4.040
2165.30;2378.73;-4.040
2170.28;2378.89;-4.040
2175.27;2378.94;-4.040
2180.26;2379.00;-4.040
2185.24;2378.96;-4.040
2190.23;2379.00;-4.040
2195.22;2379.05;-4.040
2200.20;2378.92;-4.040
2205.19;2379.13;-4.044
2210.18;2379.12;-4.040
2215.16;2379.21;-4.044
2220.15;2379.26;-4.050
2225.13;2379.10;-4.040
2230.12;2379.04;-4.040
2235.11;2379.30;-4.050
2240.09;2379.29;-4.050
2245.08;2379.14;-4.044
2250.06;2379.33;-4.050
2255.05;2379.31;-4.050
2260.04;2379.33;-4.050
2265.26;2379.50;-4.050
2270.24;2379.60;-4.050
2275.23;2379.70;-4.050
2280.21;2379.65;-4.050
2285.19;2379.50;-4.050
2290.18;2379.50;-4.050
2295.17;2379.75;-4.060
2300.15;2379.45;-4.050
2305.14;2379.80;-4.060
2310.13;2379.90;-4.060
2315.11;2380.00;-4.060
2320.10;2379.80;-4.060
2325.08;2379.95;-4.060
2330.07;2379.80;-4.060
2335.06;2379.80;-4.060
2340.04;2379.90;-4.060
2345.03;2379.65;-4.050
2350.01;2380.05;-4.060
2355.28;2380.00;-4.060
2360.27;2379.90;-4.060
2365.26;2379.95;-4.060
2370.24;2380.00;-4.060
2375.23;2380.05;-4.060
2380.21;2380.05;-4.060
2385.20;2379.95;-4.060
2390.19;2380.05;-4.060
2395.18;2380.20;-4.060
2400.16;2380.15;-4.060
2405.15;2380.20;-4.060
2410.13;2380.05;-4.060
2415.12;2380.00;-4.060
2420.11;2380.00;-4.060
2425.09;2380.10;-4.060
2430.08;2380.25;-4.060
2435.06;2380.15;-4.060
2440.05;2380.05;-4.060
2445.04;2380.05;-4.060
2450.02;2380.15;-4.060
2455.01;2380.40;-4.070
2460.60;2380.35;-4.070
2465.53;2380.19;-4.060
2470.51;2380.30;-4.068
2475.50;2380.34;-4.070
2480.47;2380.42;-4.070
2485.42;2380.37;-4.064
2490.40;2380.38;-4.070
2495.39;2380.35;-4.064
2500.38;2380.45;-4.070
2505.36;2380.46;-4.070
2510.35;2380.36;-4.070
2515.33;2380.40;-4.070
2520.32;2380.58;-4.070
2525.31;2380.52;-4.070
2530.29;2381.77;-4.088
2535.28;2380.41;-4.066
2540.27;2380.43;-4.070
2545.25;2380.56;-4.070
2550.24;2380.71;-4.074
2555.23;2392.16;-4.272
2560.17;2381.28;-4.084
2565.14;2370.08;-3.884
2570.13;2381.05;-4.078
2575.11;2323.74;-3.074
2580.10;2379.85;-4.060
2585.09;2380.31;-4.064
2590.07;2380.39;-4.070
2595.06;2377.88;-4.024
2600.05;2379.62;-4.054
2605.03;2381.28;-4.080
2610.02;2382.75;-4.106
2615.01;2382.03;-4.096
2620.27;2382.05;-4.100
2625.26;2382.55;-4.100
2630.25;2382.30;-4.100
2635.24;2382.20;-4.100
2640.22;2382.55;-4.100
2645.21;2382.45;-4.100
2650.20;2382.35;-4.100
2655.18;2382.30;-4.100
2660.17;2381.70;-4.090
2665.15;2381.65;-4.090
2670.14;2381.55;-4.090
2675.13;2381.75;-4.090
2680.11;2381.50;-4.090
2685.10;2381.45;-4.090
2690.09;2381.55;-4.090
2695.07;2381.40;-4.080
2700.06;2381.75;-4.090
2705.02;2381.30;-4.080
2710.26;2381.45;-4.090
2715.25;2381.55;-4.090
2720.23;2381.65;-4.090
2725.22;2381.65;-4.090
2730.21;2381.55;-4.090
2735.20;2381.40;-4.080
2740.18;2381.40;-4.080
2745.17;2381.45;-4.090
2750.15;2381.75;-4.090
2755.14;2381.60;-4.090
2760.13;2381.55;-4.090
2765.11;2381.45;-4.090
2770.10;2381.75;-4.090
2775.09;2381.70;-4.090
2780.07;2381.70;-4.090
2785.06;2381.60;-4.090
2790.05;2381.95;-4.090
2795.03;2381.65;-4.090
2800.02;2381.45;-4.090
2805.01;2381.75;-4.090
2810.59;2381.77;-4.090
2815.58;2381.71;-4.090
2820.56;2381.86;-4.090
2825.55;2381.84;-4.090
2830.54;2381.92;-4.090
2835.53;2381.90;-4.090
2840.51;2381.89;-4.090
2845.50;2381.77;-4.092
2850.49;2382.03;-4.098
2855.47;2382.05;-4.098
2860.46;2381.83;-4.090
2865.45;2381.86;-4.090
2870.43;2381.98;-4.092
2875.42;2381.95;-4.090
2880.41;2381.93;-4.090
2885.39;2381.83;-4.090
2890.35;2381.99;-4.094
2895.31;2381.88;-4.090
2900.29;2382.06;-4.096
2905.28;2382.08;-4.100
2910.27;2382.01;-4.096
2915.26;2381.98;-4.094
2920.24;2382.03;-4.096
2925.23;2382.01;-4.094
2930.22;2382.14;-4.100
2935.20;2382.09;-4.096
2940.19;2382.02;-4.094
2945.18;2382.10;-4.100
2950.10;2382.04;-4.094
2955.09;2382.01;-4.094
2960.08;2382.04;-4.094
2965.07;2382.21;-4.100
2970.05;2382.19;-4.100
2975.04;2382.00;-4.096
2980.03;2382.05;-4.100
2985.01;2382.29;-4.100
2990.00;2382.14;-4.100
2995.27;2382.05;-4.100
3000.26;2382.25;-4.100
3005.25;2382.30;-4.100
3010.23;2382.15;-4.100
3015.22;2382.10;-4.100
3020.21;2382.10;-4.100
3025.19;2382.30;-4.100
3030.18;2382.20;-4.100
3035.17;2382.05;-4.100
3040.15;2382.20;-4.100
3045.14;2382.10;-4.100
3050.13;2382.10;-4.100
3055.11;2382.15;-4.100
3060.10;2382.20;-4.100
3065.09;2382.05;-4.100
3070.07;2382.10;-4.100
3075.06;2382.25;-4.100
3080.05;2382.10;-4.100
3085.04;2382.20;-4.100
3090.02;2382.20;-4.100
3095.01;2382.30;-4.100
3100.28;2382.10;-4.100
3105.26;2382.15;-4.100
3110.25;2382.20;-4.100
3115.24;2382.40;-4.100
3120.23;2382.25;-4.100
3125.21;2382.05;-4.100
3130.20;2382.35;-4.100
3135.16;2382.35;-4.100
3140.12;2382.30;-4.100
3145.10;2382.45;-4.100
3150.09;2382.25;-4.100
3155.08;2382.15;-4.100
3160.06;2382.35;-4.100
3165.05;2382.50;-4.100
3170.58;2382.39;-4.100
3175.57;2382.40;-4.100
3180.56;2382.41;-4.100
3185.54;2382.32;-4.100
3190.53;2382.50;-4.100
3195.52;2382.36;-4.100
3200.51;2382.22;-4.100
3205.49;2382.38;-4.100
3210.48;2382.44;-4.100
3215.47;2382.36;-4.100
3220.45;2382.34;-4.100
3225.44;2382.44;-4.100
3230.43;2382.50;-4.100
3235.42;2382.43;-4.100
3240.40;2382.58;-4.110
3245.39;2382.55;-4.110
3250.38;2382.68;-4.110
3255.36;2382.53;-4.106
3260.35;2382.50;-4.100
3265.34;2382.61;-4.110
3270.33;2382.45;-4.104
3275.31;2382.51;-4.104
3280.30;2382.54;-4.106
3285.29;2382.50;-4.100
3290.27;2382.62;-4.106
3295.26;2382.49;-4.104
3300.25;2382.52;-4.104
3305.24;2382.63;-4.110
3310.22;2382.50;-4.100
3315.21;2382.44;-4.100
3320.20;2382.53;-4.106
3325.18;2382.65;-4.110
3330.13;2382.60;-4.110
3335.04;2382.54;-4.102
3340.03;2382.64;-4.110
3345.28;2382.75;-4.110
3350.23;2382.50;-4.100
3355.22;2382.80;-4.110
3360.21;2382.60;-4.110
3365.19;2383.80;-4.130
3370.18;2389.90;-4.230
3375.17;2389.85;-4.230
3380.15;2388.45;-4.210
3385.14;2382.20;-4.100
3390.13;2391.15;-4.260
3395.11;2379.55;-4.050
3400.10;2382.30;-4.100
3405.09;2383.50;-4.120
3410.07;2383.50;-4.120
3415.06;2383.65;-4.120
3420.05;2383.45;-4.120
3425.03;2384.10;-4.130
3430.02;2384.00;-4.130
3435.01;2383.95;-4.130
3440.28;2384.25;-4.140
3445.26;2384.00;-4.130
3450.25;2383.95;-4.130
3455.24;2383.55;-4.120
3460.22;2383.75;-4.130
3465.21;2383.40;-4.120
3470.20;2383.60;-4.120
3475.18;2383.45;-4.120
3480.17;2383.10;-4.120
3485.16;2383.35;-4.120
3490.15;2383.50;-4.120
3495.13;2383.75;-4.130
3500.12;2383.75;-4.130
3505.11;2383.40;-4.120
3510.09;2383.50;-4.120
3515.08;2383.45;-4.120
3520.07;2383.50;-4.120
3525.05;2383.45;-4.120
3530.04;2383.40;-4.120
3535.03;2383.60;-4.120
3540.01;2383.85;-4.130
3545.00;2383.30;-4.120
3550.59;2383.52;-4.120
3555.58;2383.52;-4.120
3560.56;2383.51;-4.120
3565.55;2383.65;-4.120
3570.54;2383.44;-4.120
3575.52;2383.71;-4.126
3580.51;2383.57;-4.120
3585.50;2383.56;-4.120
3590.49;2383.71;-4.126
3595.47;2383.68;-4.126
3600.46;2383.58;-4.120
3605.45;2383.59;-4.120
3610.43;2383.74;-4.130
3615.42;2383.72;-4.126
3620.41;2383.67;-4.124
3625.39;2383.69;-4.126
3630.38;2383.90;-4.130
3635.37;2383.63;-4.120
3640.35;2383.71;-4.124
3645.34;2383.93;-4.126
3650.29;2383.81;-4.130
3655.26;2384.08;-4.130
3660.25;2383.74;-4.130
3665.23;2383.70;-4.124
3670.22;2383.98;-4.130
3675.21;2383.97;-4.130
3680.20;2384.14;-4.130
3685.18;2383.89;-4.130
3690.17;2384.16;-4.130
3695.16;2383.92;-4.130
3700.14;2383.96;-4.130
3705.13;2383.75;-4.130
3710.12;2384.00;-4.130
3715.10;2383.69;-4.126
3720.09;2384.03;-4.130
3725.08;2384.10;-4.130
3730.07;2383.95;-4.130
3735.05;2384.01;-4.130
3740.04;2384.01;-4.130
3745.03;2383.93;-4.130
3750.01;2384.04;-4.130
3755.00;2384.16;-4.134
3760.27;2384.15;-4.130
3765.26;2384.15;-4.130
3770.25;2384.25;-4.140
3775.23;2383.90;-4.130
3780.22;2384.20;-4.130
3785.21;2384.25;-4.140
3790.19;2384.05;-4.130
3795.18;2384.20;-4.130
3800.17;2384.10;-4.130
3805.15;2384.40;-4.140
3810.14;2384.25;-4.140
3815.12;2384.15;-4.130
3820.05;2384.30;-4.140
3825.27;2384.20;-4.130
3830.24;2384.40;-4.140
3835.19;2384.15;-4.130
3840.17;2384.20;-4.130
3845.16;2384.35;-4.140
3850.13;2384.25;-4.140
3855.06;2384.25;-4.140
3860.26;2384.45;-4.140
3865.22;2384.45;-4.140
3870.19;2383.65;-4.120
3875.14;2384.40;-4.140
3880.13;2384.30;-4.140
3885.09;2384.10;-4.130
3890.04;2384.20;-4.130
3895.03;2384.30;-4.140
3900.57;2384.23;-4.132
3905.21;2384.40;-4.140
3910.16;2384.45;-4.140
3915.10;2384.25;-4.140
3920.08;2384.70;-4.140
3925.04;2384.30;-4.140
3930.60;2384.34;-4.136
3935.59;2384.85;-4.144
3940.57;2384.42;-4.140
3945.56;2384.61;-4.140
3950.54;2384.41;-4.140
3955.53;2384.41;-4.140
3960.52;2384.67;-4.140
3965.51;2384.58;-4.140
3970.49;2384.43;-4.140
3975.48;2384.57;-4.140
3980.47;2384.74;-4.146
3985.45;2384.59;-4.140
3990.44;2384.65;-4.140
3995.43;2384.59;-4.140
4000.41;2384.56;-4.140
4005.40;2384.62;-4.140
4010.39;2384.44;-4.140
4015.37;2384.60;-4.140
4020.36;2384.64;-4.140
4025.35;2384.81;-4.146
4030.33;2384.59;-4.140
4035.26;2384.60;-4.140
4040.19;2384.47;-4.140
4045.18;2384.50;-4.140
4050.40;2384.60;-4.140
4055.38;2384.95;-4.150
4060.37;2384.75;-4.140
4065.35;2384.55;-4.140
4070.34;2384.90;-4.150
4075.27;2384.94;-4.148
4080.25;2384.62;-4.140
4085.19;2384.84;-4.150
4090.17;2384.84;-4.150
4095.11;2384.73;-4.140
4100.09;2384.64;-4.140
4105.03;2384.70;-4.142
4110.01;2384.67;-4.140
4115.28;2384.85;-4.150
4120.26;2384.85;-4.150
4125.25;2384.95;-4.150
4130.23;2384.85;-4.150
4135.22;2384.65;-4.140
4140.16;2384.80;-4.150
4145.14;2384.80;-4.150
4150.13;2383.80;-4.130
4155.11;2384.70;-4.140
4160.10;2385.05;-4.150
4165.09;2384.65;-4.140
4170.08;2384.55;-4.140
4175.06;2384.35;-4.140
4180.05;2384.75;-4.140
4185.02;2384.92;-4.150
4190.23;2384.90;-4.150
4195.18;2384.80;-4.150
4200.16;2384.65;-4.140
4205.15;2384.80;-4.150
4210.14;2384.80;-4.150
4215.13;2384.60;-4.140
4220.11;2384.65;-4.140
4225.10;2385.60;-4.160
4230.09;2384.90;-4.150
4235.07;2384.65;-4.140
4240.06;2384.70;-4.140
4245.04;2384.60;-4.140
4250.03;2384.60;-4.140
4255.02;2384.80;-4.150
4260.00;2384.95;-4.150
4265.59;2384.73;-4.140
4270.58;2384.78;-4.148
4275.56;2384.86;-4.142
4280.55;2384.97;-4.150
4285.19;2384.70;-4.140
4290.15;2385.05;-4.150
4295.14;2384.90;-4.150
4300.13;2384.95;-4.150
4305.11;2384.80;-4.150
4310.10;2384.90;-4.150
4315.08;2384.65;-4.140
4320.07;2384.90;-4.150
4325.06;2384.95;-4.150
4330.04;2384.80;-4.150
4335.03;2384.90;-4.150
4340.02;2384.80;-4.150
4345.00;2384.85;-4.150
4350.59;2384.85;-4.150
4355.55;2384.77;-4.148
4360.51;2384.81;-4.148
4365.50;2384.92;-4.150
4370.48;2384.72;-4.142
4375.47;2384.96;-4.150
4380.46;2385.01;-4.150
4385.44;2384.91;-4.150
4390.43;2385.00;-4.150
4395.42;2385.08;-4.150
4400.40;2384.98;-4.150
4405.39;2384.85;-4.148
4410.38;2384.19;-4.134
4415.37;2384.94;-4.150
4420.35;2384.84;-4.150
4425.34;2384.93;-4.150
4430.32;2385.00;-4.150
4435.31;2384.86;-4.150
4440.30;2385.03;-4.150
4445.28;2384.67;-4.140
4450.27;2387.81;-4.200
4455.26;2385.38;-4.154
4460.19;2383.33;-4.120
4465.18;2385.88;-4.162
4470.16;2382.20;-4.102
4475.13;2384.11;-4.130
4480.08;2384.38;-4.140
4485.07;2384.47;-4.140
4490.05;2382.36;-4.102
4495.04;2382.79;-4.110
4500.03;2384.88;-4.144
4505.01;2385.40;-4.154
4510.00;2385.53;-4.160
4515.27;2385.85;-4.160
4520.26;2386.50;-4.170
4525.25;2386.35;-4.170
4530.23;2386.40;-4.170
4535.22;2386.80;-4.180
4540.20;2386.50;-4.170
4545.19;2386.30;-4.170
4550.18;2385.90;-4.160
4555.17;2385.65;-4.160
4560.15;2385.75;-4.160
4565.14;2385.95;-4.170
4570.13;2386.55;-4.180
4575.12;2385.65;-4.160
4580.10;2386.10;-4.170
4585.09;2386.05;-4.170
4590.08;2387.05;-4.180
4595.06;2385.95;-4.170
4600.05;2385.10;-4.150
4605.04;2385.95;-4.170
4610.02;2386.00;-4.170
4615.01;2385.95;-4.170
4620.00;2385.95;-4.170
4625.27;2385.90;-4.160
4630.26;2386.00;-4.170
4635.25;2386.20;-4.170
4640.23;2386.15;-4.170
4645.22;2385.95;-4.170
4650.21;2386.15;-4.170
4655.19;2385.95;-4.170
4660.18;2385.60;-4.160
4665.17;2385.95;-4.170
4670.15;2385.90;-4.160
4675.14;2385.85;-4.160
4680.13;2385.85;-4.160
4685.12;2386.20;-4.170
4690.10;2386.00;-4.170
4695.10;2385.85;-4.160
4700.08;2386.05;-4.170
4705.07;2385.90;-4.160
4710.05;2386.00;-4.170
4715.04;2385.80;-4.160
4720.03;2386.10;-4.170
4725.02;2385.85;-4.160
4730.00;2386.05;-4.170
4735.59;2386.10;-4.170
4740.52;2385.92;-4.162
4745.51;2385.87;-4.162
4750.50;2385.81;-4.160
4755.48;2385.94;-4.168
4760.47;2385.89;-4.160
4765.46;2386.02;-4.170
4770.44;2386.01;-4.170
4775.43;2385.86;-4.160
4780.42;2386.04;-4.170
4785.40;2386.09;-4.170
4790.39;2386.11;-4.170
4795.38;2386.03;-4.170
4800.37;2386.20;-4.170
4805.35;2386.25;-4.170
4810.34;2386.09;-4.170
4815.33;2386.01;-4.170
4820.31;2386.09;-4.170
4825.30;2386.14;-4.170
4830.29;2386.05;-4.170
4835.28;2386.16;-4.170
4840.26;2386.08;-4.170
4845.25;2386.00;-4.170
4850.24;2386.08;-4.170
4855.17;2386.38;-4.170
4860.16;2386.19;-4.170
4865.14;2386.12;-4.170
4870.13;2386.27;-4.170
4875.12;2386.07;-4.170
4880.11;2386.16;-4.170
4885.09;2386.30;-4.170
4890.08;2386.17;-4.170
4895.07;2386.03;-4.170
4900.05;2386.06;-4.170
4905.04;2386.11;-4.170
4910.03;2386.08;-4.170
4915.01;2386.06;-4.170
4920.00;2386.19;-4.170
4925.27;2386.15;-4.170
4930.26;2386.20;-4.170
4935.25;2386.00;-4.170
4940.23;2386.20;-4.170
4945.22;2386.15;-4.170
4950.21;2386.35;-4.170
4955.19;2386.10;-4.170
4960.18;2386.10;-4.170
4965.17;2386.20;-4.170
4970.15;2386.15;-4.170
4975.14;2386.10;-4.170
4980.13;2386.15;-4.170
4985.11;2386.25;-4.170
4990.10;2386.15;-4.170
4995.09;2386.05;-4.170
5000.08;2386.20;-4.170
5005.06;2386.20;-4.170
5010.05;2386.05;-4.170
5015.04;2386.05;-4.170
5020.02;2386.10;-4.170
5025.01;2386.20;-4.170
5030.60;2386.09;-4.170
5035.58;2386.06;-4.170
5040.57;2386.02;-4.168
5045.56;2386.08;-4.170
5050.54;2385.97;-4.168
5055.53;2386.03;-4.170
5060.52;2386.35;-4.170
5065.50;2386.20;-4.170
5070.49;2386.02;-4.170
5075.48;2385.83;-4.160
5080.46;2386.14;-4.170
5085.45;2386.09;-4.170
5090.44;2386.04;-4.170
5095.42;2386.07;-4.170
5100.41;2385.96;-4.170
5105.40;2385.93;-4.168
5110.38;2386.04;-4.170
5115.37;2386.16;-4.170
5120.36;2385.87;-4.162
5125.35;2385.91;-4.168
5130.33;2385.89;-4.168
5135.32;2385.79;-4.160
5140.31;2385.83;-4.160
5145.29;2385.64;-4.160
5150.28;2384.84;-4.148
5155.27;2384.78;-4.148
5160.25;2384.65;-4.140
5165.24;2384.68;-4.142
5170.23;2384.67;-4.140
5175.21;2384.83;-4.148
5180.20;2385.11;-4.150
5185.19;2384.97;-4.150
5190.17;2384.71;-4.142
5195.16;2384.72;-4.142
5200.15;2384.79;-4.148
5205.13;2384.93;-4.150
5210.12;2384.87;-4.150
5215.11;2384.77;-4.142
5220.09;2384.79;-4.148
5225.08;2384.91;-4.148
5230.07;2384.96;-4.150
5235.06;2384.78;-4.142
5240.04;2384.79;-4.148
5245.03;2384.81;-4.148
5250.01;2384.97;-4.150
5255.23;2384.85;-4.150
5260.21;2384.90;-4.150
5265.20;2384.65;-4.140
5270.19;2384.65;-4.140
5275.17;2384.65;-4.140
5280.16;2384.60;-4.140
5285.15;2384.85;-4.150
5290.13;2384.65;-4.140
5295.12;2384.80;-4.150
5300.11;2384.75;-4.140
5305.10;2384.85;-4.150
5310.08;2384.65;-4.140
5315.07;2384.90;-4.150
5320.06;2384.70;-4.140
5325.01;2384.71;-4.140
5330.25;2384.70;-4.140
5335.24;2384.65;-4.140
5340.23;2384.75;-4.140
5345.22;2384.80;-4.150
5350.20;2384.60;-4.140
5355.19;2384.35;-4.140
5360.18;2384.10;-4.130
5365.16;2384.05;-4.130
5370.15;2384.20;-4.130
5375.14;2384.35;-4.140
5380.12;2384.20;-4.130
5385.11;2384.10;-4.130
5390.10;2384.45;-4.140
5395.08;2384.30;-4.140
5400.07;2384.10;-4.130
5405.06;2384.35;-4.140
5410.04;2384.20;-4.130
5415.03;2384.10;-4.130
5420.02;2384.50;-4.140
5425.00;2384.25;-4.140
5430.59;2384.18;-4.130
5435.58;2384.35;-4.140
5440.56;2384.49;-4.140
5445.55;2384.41;-4.140
5450.54;2384.47;-4.140
5455.53;2384.50;-4.140
5460.51;2384.32;-4.140
5465.50;2384.54;-4.140
5470.49;2384.53;-4.140
5475.47;2384.48;-4.140
5480.46;2384.57;-4.140
5485.45;2384.54;-4.140
5490.43;2384.51;-4.140
5495.42;2384.58;-4.140
5500.41;2384.41;-4.140
5505.40;2384.41;-4.140
5510.38;2384.78;-4.146
5515.37;2384.68;-4.140
5520.36;2384.57;-4.140
5525.34;2384.53;-4.140
5530.33;2384.80;-4.150
5535.32;2384.71;-4.140
5540.30;2384.54;-4.140
5545.29;2384.67;-4.140
5550.28;2384.64;-4.140
5555.27;2384.71;-4.144
5560.25;2384.59;-4.140
5565.24;2384.58;-4.140
5570.22;2384.68;-4.140
5575.21;2384.71;-4.144
5580.20;2384.46;-4.140
5585.19;2384.54;-4.140
5590.17;2384.72;-4.146
5595.16;2384.67;-4.140
5600.15;2384.60;-4.140
5605.13;2384.61;-4.140
5610.12;2384.56;-4.140
5615.10;2384.74;-4.146
5620.09;2384.82;-4.150
5625.08;2384.59;-4.140
5630.06;2384.37;-4.140
5635.05;2384.50;-4.140
5640.04;2384.72;-4.140
5645.02;2384.72;-4.146
5650.01;2384.60;-4.140
5655.28;2384.55;-4.140
5660.27;2384.55;-4.140
5665.25;2384.65;-4.140
5670.24;2384.65;-4.140
5675.23;2384.50;-4.140
5680.21;2384.50;-4.140
5685.20;2384.85;-4.150
5690.19;2384.85;-4.150
5695.17;2384.70;-4.140
5700.16;2384.65;-4.140
5705.15;2384.75;-4.140
5710.13;2384.25;-4.140
5715.12;2384.55;-4.140
5720.11;2384.55;-4.140
5725.09;2384.75;-4.140
5730.08;2384.65;-4.140
5735.06;2384.70;-4.140
5740.05;2384.65;-4.140
5745.04;2384.30;-4.140
5750.03;2384.70;-4.140
5755.01;2384.65;-4.140
5760.23;2384.60;-4.140
5765.21;2384.65;-4.140
5770.20;2383.90;-4.130
5775.18;2384.60;-4.140
5780.17;2384.35;-4.140
5785.16;2384.35;-4.140
5790.14;2384.40;-4.140
5795.10;2384.70;-4.140
5800.06;2384.65;-4.140
5805.05;2383.55;-4.120
5810.03;2400.40;-4.420
5815.02;2387.70;-4.200
5820.01;2386.15;-4.170
5825.59;2386.70;-4.178
5830.58;2395.63;-4.334
5835.57;2387.04;-4.186
5840.55;2387.92;-4.198
5845.54;2388.18;-4.204
5850.53;2385.91;-4.166
5855.51;2386.01;-4.168
5860.50;2387.14;-4.188
5865.49;2384.55;-4.140
5870.48;2384.36;-4.136
5875.46;2384.12;-4.132
5880.45;2385.01;-4.148
5885.43;2386.86;-4.180
5890.42;2383.93;-4.130
5895.41;2384.09;-4.130
5900.39;2384.20;-4.130
5905.38;2384.37;-4.140
5910.37;2384.29;-4.136
5915.35;2381.61;-4.088
5920.34;2380.60;-4.070
5925.33;2382.25;-4.102
5930.31;2384.11;-4.130
5935.30;2384.68;-4.144
5940.29;2384.72;-4.146
5945.27;2385.13;-4.150
5950.26;2385.02;-4.150
5955.25;2384.44;-4.140
5960.23;2384.40;-4.140
5965.22;2384.69;-4.140
5970.21;2384.61;-4.144
5975.19;2384.53;-4.140
5980.18;2384.22;-4.136
5985.17;2383.91;-4.130
5990.15;2383.94;-4.130
5995.14;2383.94;-4.130
6000.13;2384.14;-4.130
6005.11;2384.10;-4.130
6010.10;2383.97;-4.130
6015.09;2383.83;-4.130
6020.07;2383.73;-4.130
6025.06;2383.79;-4.130
6030.05;2383.98;-4.130
6035.03;2383.73;-4.130
6040.02;2383.52;-4.120
6045.01;2383.84;-4.130
6050.28;2383.85;-4.130
6055.26;2383.75;-4.130
6060.25;2383.60;-4.120
6065.24;2384.00;-4.130
6070.23;2383.65;-4.120
6075.21;2383.85;-4.130
6080.20;2383.55;-4.120
6085.19;2383.45;-4.120
6090.17;2383.40;-4.120
6095.16;2383.20;-4.120
6100.15;2383.35;-4.120
6105.13;2383.45;-4.120
6110.12;2383.25;-4.120
6115.09;2383.10;-4.120
6120.09;2383.05;-4.110
6125.08;2383.20;-4.120
6130.07;2383.20;-4.120
6135.05;2383.30;-4.120
6140.04;2383.45;-4.120
6145.02;2383.15;-4.120
6150.01;2382.85;-4.110
6155.28;2382.80;-4.110
6160.21;2383.00;-4.110
6165.20;2382.90;-4.110
6170.19;2383.10;-4.120
6175.17;2382.90;-4.110
6180.16;2383.15;-4.120
6185.15;2382.85;-4.110
6190.13;2382.95;-4.110
6195.12;2383.05;-4.110
6200.10;2383.00;-4.110
6205.09;2383.05;-4.110
6210.08;2383.00;-4.110
6215.07;2382.90;-4.110
6220.05;2383.10;-4.120
6225.04;2383.00;-4.110
6230.02;2382.80;-4.110
6235.01;2382.90;-4.110
6240.60;2383.10;-4.120
6245.58;2382.85;-4.110
6250.57;2382.80;-4.110
6255.56;2382.75;-4.110
6260.54;2382.95;-4.110
6265.53;2382.75;-4.110
6270.52;2382.75;-4.110
6275.50;2382.75;-4.110
6280.49;2382.70;-4.110
6285.48;2382.80;-4.110
6290.46;2382.80;-4.110
6295.45;2382.65;-4.110
6300.44;2382.75;-4.110
6305.42;2382.45;-4.100
6310.41;2382.60;-4.110
6315.40;2382.80;-4.110
6320.38;2382.60;-4.110
6325.37;2382.75;-4.110
6330.36;2382.70;-4.110
6335.34;2382.50;-4.100
6340.33;2382.55;-4.110
6345.32;2382.55;-4.110
6350.30;2382.40;-4.100
6355.29;2382.45;-4.100
6360.28;2382.75;-4.110
6365.26;2382.35;-4.100
6370.25;2382.30;-4.100
6375.24;2382.60;-4.110
6380.22;2382.55;-4.110
6385.21;2382.40;-4.100
6390.19;2382.55;-4.110
6395.18;2382.65;-4.110
6400.17;2382.15;-4.100
6405.15;2381.80;-4.090
6410.14;2382.70;-4.110
6415.12;2382.40;-4.100
6420.11;2382.35;-4.100
6425.10;2381.90;-4.090
6430.09;2382.35;-4.100
6435.07;2382.60;-4.110
6440.06;2382.55;-4.110
6445.05;2382.25;-4.100
6450.03;2382.45;-4.100
6455.02;2468.05;-5.610
6460.00;2388.30;-4.210
6465.28;2385.45;-4.160
6470.26;2371.80;-3.920
6475.25;2383.10;-4.120
6480.23;2327.85;-3.150
6485.22;2387.35;-4.190
6490.21;2376.45;-4.000
6495.20;2379.25;-4.050
6500.18;2380.10;-4.060
6505.17;2383.60;-4.120
6510.16;2381.35;-4.080
6515.14;2381.65;-4.090
6520.13;2381.45;-4.090
6525.12;2385.50;-4.160
6530.10;2381.55;-4.090
6535.09;2381.65;-4.090
6540.08;2381.95;-4.100
6545.06;2382.60;-4.110
6550.05;2378.10;-4.030
6555.03;2382.30;-4.100
6560.02;2382.75;-4.110
6565.01;2384.65;-4.140
6570.60;2395.74;-4.338
6575.58;2383.47;-4.126
6580.57;2383.17;-4.116
6585.55;2391.37;-4.258
6590.54;2385.76;-4.166
6595.53;2382.72;-4.110
6600.51;2382.95;-4.116
6605.50;2386.20;-4.168
6610.49;2374.61;-3.968
6615.47;2380.36;-4.068
6620.46;2381.74;-4.090
6625.45;2381.84;-4.090
6630.43;2381.95;-4.100
6635.42;2382.01;-4.096
6640.41;2381.88;-4.090
6645.39;2381.78;-4.090
6650.38;2382.56;-4.106
6655.37;2382.06;-4.100
6660.35;2382.24;-4.100
6665.34;2381.94;-4.096
6670.33;2382.08;-4.100
6675.31;2382.11;-4.100
6680.30;2377.65;-4.020
6685.29;2380.06;-4.066
6690.27;2381.79;-4.090
6695.20;2382.65;-4.106
6700.19;2382.15;-4.100
6705.17;2382.44;-4.106
6710.16;2382.76;-4.110
6715.15;2382.78;-4.110
6720.13;2382.54;-4.110
6725.12;2382.73;-4.110
6730.11;2382.72;-4.110
6735.09;2382.56;-4.110
6740.08;2382.14;-4.100
6745.06;2381.94;-4.094
6750.05;2382.04;-4.100
6755.04;2381.99;-4.100
6760.03;2382.03;-4.096
6765.01;2381.88;-4.090
6770.28;2382.15;-4.100
6775.27;2382.15;-4.100
6780.25;2382.15;-4.100
6785.24;2381.85;-4.090
6790.23;2382.05;-4.100
6795.21;2381.90;-4.090
6800.20;2382.20;-4.100
6805.19;2382.15;-4.100
6810.17;2382.00;-4.100
6815.14;2382.00;-4.100
6820.09;2381.95;-4.100
6825.08;2382.05;-4.100
6830.06;2382.25;-4.100
6835.05;2381.90;-4.090
6840.04;2381.90;-4.090
6845.02;2382.05;-4.100
6850.01;2382.05;-4.100
6855.28;2382.05;-4.100
6860.26;2382.15;-4.100
6865.25;2382.10;-4.100
6870.24;2381.80;-4.090
6875.22;2382.10;-4.100
6880.21;2382.10;-4.100
6885.20;2382.15;-4.100
6890.19;2381.90;-4.090
6895.17;2381.90;-4.090
6900.16;2382.20;-4.100
6905.15;2381.90;-4.090
6910.13;2381.90;-4.090
6915.11;2382.10;-4.100
6920.06;2381.85;-4.090
6925.03;2381.90;-4.090
6930.02;2381.90;-4.090
6935.00;2382.05;-4.100
6940.59;2381.88;-4.090
6945.58;2382.01;-4.100
6950.56;2382.19;-4.100
6955.55;2381.97;-4.100
6960.54;2381.97;-4.096
6965.52;2381.91;-4.094
6970.51;2382.02;-4.100
6975.50;2381.93;-4.096
6980.48;2381.95;-4.100
6985.47;2381.86;-4.090
6990.45;2381.97;-4.100
6995.44;2382.04;-4.100
7000.43;2381.78;-4.090
7005.41;2381.99;-4.100
7010.40;2381.96;-4.094
7015.39;2381.85;-4.090
7020.37;2381.90;-4.094
7025.36;2381.96;-4.094
7030.35;2381.88;-4.090
7035.33;2381.94;-4.096
7040.32;2381.97;-4.096
7045.31;2382.09;-4.100
7050.29;2382.01;-4.100
7055.28;2381.89;-4.096
7060.26;2381.98;-4.100
7065.25;2381.95;-4.100
7070.24;2382.13;-4.100
7075.22;2382.06;-4.100
7080.21;2382.02;-4.100
7085.19;2382.00;-4.100
7090.18;2382.08;-4.100
7095.17;2382.07;-4.100
7100.15;2382.06;-4.094
7105.14;2382.12;-4.100
7110.13;2382.03;-4.100
7115.11;2381.93;-4.094
7120.10;2381.78;-4.090
7125.09;2381.53;-4.090
7130.07;2382.06;-4.100
7135.06;2382.01;-4.100
7140.05;2382.12;-4.100
7145.03;2382.08;-4.100
7150.02;2382.16;-4.100
7155.01;2381.92;-4.094
7160.28;2381.80;-4.090
7165.26;2381.80;-4.090
7170.25;2382.00;-4.100
7175.24;2382.00;-4.100
7180.22;2382.00;-4.100
7185.21;2382.15;-4.100
7190.20;2382.15;-4.100
7195.18;2382.10;-4.100
7200.17;2381.90;-4.090
7205.15;2381.85;-4.090
7210.14;2381.80;-4.090
7215.13;2381.65;-4.090
7220.06;2382.35;-4.100
7225.04;2382.30;-4.100
7230.03;2382.20;-4.100
7235.02;2416.75;-4.710
7240.01;2384.65;-4.140
7245.27;2378.25;-4.030
7250.26;2387.70;-4.200
7255.25;2383.60;-4.120
7260.23;2381.45;-4.090
7265.22;2386.40;-4.170
7270.21;2378.30;-4.030
7275.19;2382.80;-4.110
7280.18;2381.25;-4.080
7285.17;2383.00;-4.110
7290.15;2383.05;-4.120
7295.14;2382.35;-4.100
7300.13;2381.55;-4.090
7305.11;2381.95;-4.100
7310.04;2390.15;-4.240
7315.03;2384.00;-4.130
7320.02;2378.15;-4.030
7325.00;2382.50;-4.110
7330.59;2380.30;-4.068
7335.58;2395.24;-4.328
7340.56;2375.21;-3.978
7345.55;2378.82;-4.038
7350.54;2382.05;-4.100
7355.52;2384.27;-4.138
7360.51;2383.14;-4.120
7365.50;2383.00;-4.118
7370.48;2383.37;-4.120
7375.47;2383.71;-4.128
7380.46;2383.70;-4.128
7385.44;2383.52;-4.120
7390.43;2383.88;-4.130
7395.42;2383.35;-4.120
7400.40;2383.23;-4.122
7405.39;2383.15;-4.120
7410.37;2384.64;-4.142
7415.31;2380.24;-4.068
7420.29;2387.21;-4.186
7425.28;2371.93;-3.920
7430.26;2382.69;-4.110
7435.25;2382.36;-4.102
7440.24;2382.71;-4.110
7445.22;2382.86;-4.114
7450.21;2382.97;-4.110
7455.19;2383.13;-4.120
7460.18;2383.14;-4.120
7465.17;2382.96;-4.114
7470.15;2383.06;-4.114
7475.14;2383.23;-4.120
7480.13;2383.20;-4.120
7485.12;2383.13;-4.120
7490.08;2383.14;-4.116
7495.03;2383.33;-4.120
7500.02;2383.28;-4.120
7505.00;2383.32;-4.124
7510.27;2383.00;-4.110
7515.26;2383.25;-4.120
7520.25;2383.45;-4.120
7525.23;2383.40;-4.120
7530.22;2383.30;-4.120
7535.21;2383.45;-4.120
7540.19;2383.35;-4.120
7545.18;2383.30;-4.120
7550.17;2383.30;-4.120
7555.15;2383.85;-4.130
7560.14;2383.60;-4.120
7565.12;2383.35;-4.120
7570.11;2383.35;-4.120
7575.10;2383.60;-4.120
7580.08;2383.50;-4.120
7585.07;2383.50;-4.120
7590.06;2383.45;-4.120
7595.04;2383.70;-4.130
7600.03;2383.45;-4.120
7605.02;2383.35;-4.120
7610.00;2383.70;-4.130
7615.27;2383.50;-4.120
7620.26;2383.70;-4.130
7625.25;2383.50;-4.120
7630.23;2383.05;-4.120
7635.16;2383.60;-4.120
7640.07;2383.50;-4.120
7645.02;2383.75;-4.130
7650.01;2383.60;-4.120
7655.60;2383.46;-4.120
7660.58;2383.57;-4.120
7665.57;2383.57;-4.120
7670.56;2383.67;-4.126
7675.54;2383.66;-4.124
7680.53;2383.59;-4.126
7685.52;2383.58;-4.120
7690.50;2383.80;-4.130
7695.49;2383.57;-4.126
7700.48;2383.67;-4.130
7705.46;2383.58;-4.124
7710.45;2383.65;-4.130
7715.44;2383.64;-4.124
7720.42;2383.55;-4.124
7725.41;2383.81;-4.130
7730.40;2383.53;-4.124
7735.38;2383.56;-4.120
7740.37;2383.63;-4.124
7745.35;2383.34;-4.124
7750.34;2383.85;-4.130
7755.33;2383.57;-4.124
7760.31;2383.54;-4.120
7765.30;2383.79;-4.126
7770.29;2383.54;-4.120
7775.27;2383.60;-4.124
7780.26;2383.55;-4.124
7785.25;2383.54;-4.120
7790.23;2383.66;-4.126
7795.22;2383.63;-4.126
7800.15;2383.51;-4.120
7805.14;2383.75;-4.130
7810.12;2383.70;-4.130
7815.11;2383.78;-4.128
7820.10;2383.44;-4.120
7825.08;2383.81;-4.130
7830.07;2383.58;-4.120
7835.06;2383.78;-4.128
7840.04;2383.89;-4.130
7845.26;2383.45;-4.120
7850.24;2383.50;-4.120
7855.23;2383.70;-4.130
7860.20;2383.57;-4.122
7865.14;2383.83;-4.130
7870.13;2383.53;-4.122
7875.12;2383.68;-4.128
7880.10;2383.54;-4.120
7885.09;2383.50;-4.120
7890.08;2383.44;-4.120
7895.06;2383.74;-4.128
7900.05;2383.40;-4.120
7905.04;2383.54;-4.120
7910.02;2383.46;-4.122
7915.01;2383.51;-4.120
7920.28;2383.60;-4.120
7925.27;2383.60;-4.120
7930.25;2383.65;-4.130
7935.24;2383.40;-4.120
7940.23;2383.65;-4.130
7945.21;2383.70;-4.130
7950.20;2383.60;-4.120
7955.19;2383.45;-4.120
7960.17;2383.75;-4.130
7965.16;2383.45;-4.120
7970.15;2383.70;-4.130
7975.14;2383.55;-4.120
7980.12;2383.60;-4.120
7985.11;2383.55;-4.120
7990.10;2383.55;-4.120
7995.08;2383.60;-4.120
8000.07;2383.50;-4.120
8005.06;2383.70;-4.130
8010.04;2383.35;-4.120
8015.03;2383.30;-4.120
8020.02;2383.55;-4.120
8025.00;2383.60;-4.120
8030.59;2383.44;-4.120
8035.58;2383.53;-4.124
8040.56;2383.47;-4.124
8045.55;2383.33;-4.120
8050.54;2383.41;-4.120
8055.52;2383.59;-4.126
8060.51;2383.54;-4.120
8065.50;2383.54;-4.126
8070.48;2383.65;-4.126
8075.47;2383.48;-4.120
8080.46;2383.43;-4.120
8085.44;2383.42;-4.120
8090.43;2383.22;-4.120
8095.42;2383.48;-4.120
8100.40;2383.43;-4.120
8105.39;2383.50;-4.120
8110.38;2383.38;-4.120
8115.36;2383.38;-4.120
8120.35;2383.44;-4.120
8125.34;2383.32;-4.120
8130.32;2383.38;-4.120
8135.31;2383.51;-4.120
8140.30;2383.54;-4.126
8145.28;2383.59;-4.124
8150.27;2383.36;-4.120
8155.26;2383.38;-4.120
8160.24;2383.37;-4.120
8165.23;2383.42;-4.120
8170.22;2383.43;-4.120
8175.20;2383.40;-4.120
8180.19;2383.38;-4.120
8185.18;2383.64;-4.126
8190.16;2383.41;-4.120
8195.15;2383.44;-4.120
8200.14;2383.44;-4.124
8205.12;2383.37;-4.120
8210.11;2383.54;-4.120
8215.10;2383.26;-4.120
8220.08;2383.50;-4.124
8225.07;2383.67;-4.126
8230.06;2383.36;-4.120
8235.04;2383.48;-4.120
8240.03;2383.46;-4.120
8245.02;2383.49;-4.120
8250.01;2383.66;-4.126
8255.28;2383.80;-4.130
8260.26;2383.65;-4.130
8265.25;2383.45;-4.120
8270.24;2383.80;-4.130
8275.22;2383.80;-4.130
8280.21;2383.80;-4.130
8285.20;2383.35;-4.120
8290.18;2383.45;-4.120
8295.17;2383.60;-4.120
8300.16;2383.80;-4.130
8305.15;2383.55;-4.120
8310.13;2383.55;-4.120
8315.12;2383.65;-4.130
8320.10;2383.50;-4.120
8325.09;2383.40;-4.120
8330.08;2380.85;-4.080
8335.07;2383.40;-4.120
8340.05;2383.40;-4.120
8345.04;2383.55;-4.120
8350.26;2383.45;-4.120
8355.24;2383.70;-4.130
8360.22;2383.35;-4.120
8365.21;2383.65;-4.130
8370.20;2383.50;-4.120
8375.19;2383.45;-4.120
8380.17;2383.35;-4.120
8385.16;2383.60;-4.120
8390.15;2382.95;-4.110
8395.14;2385.95;-4.170
8400.12;2385.95;-4.170
8405.11;2488.65;-5.970
8410.09;2386.50;-4.180
8415.08;2387.70;-4.200
8420.07;2387.05;-4.190
8425.06;2381.20;-4.080
8430.04;2379.20;-4.050
8435.03;2378.50;-4.040
8440.58;2385.03;-4.152
8445.55;2382.81;-4.110
8450.54;2382.81;-4.114
8455.52;2383.11;-4.116
8460.51;2382.90;-4.110
8465.50;2383.10;-4.120
8470.48;2379.04;-4.044
8475.47;2381.03;-4.076
8480.46;2383.62;-4.126
8485.45;2384.98;-4.150
8490.43;2384.53;-4.140
8495.42;2384.97;-4.150
8500.41;2385.08;-4.150
8505.39;2385.48;-4.160
8510.38;2385.66;-4.160
8515.37;2385.74;-4.160
8520.35;2385.36;-4.154
8525.34;2385.74;-4.160
8530.33;2384.86;-4.150
8535.31;2384.74;-4.146
8540.30;2384.73;-4.144
8545.29;2384.65;-4.140
8550.27;2384.53;-4.140
8555.26;2384.75;-4.146
8560.25;2384.98;-4.150
8565.23;2384.74;-4.146
8570.22;2384.77;-4.150
8575.21;2384.98;-4.150
8580.19;2384.88;-4.150
8585.18;2385.01;-4.150
8590.17;2384.99;-4.150
8595.16;2384.93;-4.150
8600.14;2384.83;-4.150
8605.13;2385.07;-4.150
8610.12;2385.20;-4.150
8615.10;2384.94;-4.150
8620.09;2384.91;-4.150
8625.08;2385.07;-4.150
8630.06;2385.20;-4.150
8635.05;2385.10;-4.150
8640.04;2385.04;-4.150
8645.02;2384.97;-4.150
8650.01;2385.11;-4.150
8655.28;2385.20;-4.150
8660.26;2385.35;-4.160
8665.25;2385.00;-4.150
8670.24;2385.00;-4.150
8675.23;2385.05;-4.150
8680.21;2385.10;-4.150
8685.20;2385.20;-4.150
8690.19;2385.20;-4.150
8695.18;2384.95;-4.150
8700.16;2385.05;-4.150
8705.15;2384.95;-4.150
8710.09;2385.15;-4.150
8715.07;2385.10;-4.150
8720.05;2385.15;-4.150
8725.04;2385.00;-4.150
8730.03;2384.90;-4.150
8735.01;2384.85;-4.150
8740.00;2385.05;-4.150
8745.27;2385.25;-4.150
8750.26;2384.95;-4.150
8755.25;2384.95;-4.150
8760.23;2384.95;-4.150
8765.22;2385.15;-4.150
8770.21;2385.25;-4.150
8775.19;2384.55;-4.140
8780.18;2386.40;-4.170
8785.17;2385.10;-4.150
8790.16;2385.15;-4.150
8795.14;2385.10;-4.150
8800.13;2384.95;-4.150
8805.12;2385.05;-4.150
8810.10;2384.30;-4.140
8815.09;2385.15;-4.150
8820.08;2384.90;-4.150
8825.07;2385.25;-4.150
8830.05;2385.25;-4.150
8835.04;2385.10;-4.150
8840.03;2384.95;-4.150
8845.01;2385.05;-4.150
8850.00;2385.00;-4.150
8855.59;2385.05;-4.150
8860.58;2383.45;-4.120
8865.56;2384.70;-4.140
8870.55;2385.05;-4.150
8875.54;2384.70;-4.140
8880.53;2384.90;-4.150
8885.51;2385.05;-4.150
8890.50;2385.25;-4.150
8895.49;2384.80;-4.150
8900.47;2389.25;-4.220
8905.46;2384.95;-4.150
8910.45;2385.10;-4.150
8915.43;2384.95;-4.150
8920.42;2385.10;-4.150
8925.41;2385.00;-4.150
8930.39;2385.10;-4.150
8935.38;2384.95;-4.150
8940.37;2385.05;-4.150
8945.36;2385.10;-4.150
8950.34;2385.05;-4.150
8955.33;2385.00;-4.150
8960.32;2385.00;-4.150
8965.30;2385.00;-4.150
8970.29;2385.05;-4.150
8975.28;2385.20;-4.150
8980.26;2383.70;-4.130
8985.25;2385.40;-4.160
8990.24;2385.30;-4.150
8995.22;2385.10;-4.150
9000.21;2385.20;-4.150
9005.20;2385.05;-4.150
9010.19;2385.10;-4.150
9015.17;2385.25;-4.150
9020.16;2385.30;-4.150
9025.15;2385.00;-4.150
9030.14;2385.25;-4.150
9035.13;2385.00;-4.150
9040.11;2384.90;-4.150
9045.10;2384.95;-4.150
9050.08;2385.15;-4.150
9055.08;2384.40;-4.140
9060.06;2385.10;-4.150
9065.05;2384.95;-4.150
9070.04;2384.70;-4.140
9075.02;2385.15;-4.150
9080.01;2384.95;-4.150
9085.28;2385.10;-4.150
9090.27;2384.90;-4.150
9095.25;2384.95;-4.150
9100.24;2385.05;-4.150
9105.23;2385.10;-4.150
9110.21;2384.85;-4.150
9115.20;2384.75;-4.150
9120.19;2385.00;-4.150
9125.18;2384.90;-4.150
9130.16;2384.90;-4.150
9135.15;2384.90;-4.150
9140.14;2384.90;-4.150
9145.13;2385.00;-4.150
9150.11;2385.00;-4.150
9155.10;2384.80;-4.150
9160.09;2384.95;-4.150
9165.07;2384.95;-4.150
9170.06;2384.55;-4.140
9175.05;2384.80;-4.150
9180.04;2384.90;-4.150
9185.02;2384.85;-4.150
9190.01;2384.70;-4.140
9195.60;2384.73;-4.146
9200.58;2384.84;-4.150
9205.57;2384.90;-4.150
9210.56;2384.89;-4.150
9215.55;2384.95;-4.150
9220.53;2384.88;-4.150
9225.52;2384.57;-4.144
9230.51;2384.66;-4.144
9235.49;2384.83;-4.150
9240.48;2384.85;-4.150
9245.47;2384.89;-4.150
9250.46;2384.74;-4.146
9255.44;2384.97;-4.150
9260.43;2384.71;-4.146
9265.42;2384.74;-4.146
9270.40;2384.95;-4.150
9275.39;2385.04;-4.150
9280.38;2384.71;-4.146
9285.36;2384.92;-4.150
9290.35;2384.73;-4.146
9295.34;2384.73;-4.146
9300.32;2384.66;-4.144
9305.31;2384.70;-4.140
9310.30;2384.85;-4.150
9315.29;2384.81;-4.150
9320.27;2383.86;-4.132
9325.26;2382.91;-4.112
9330.25;2385.10;-4.152
9335.23;2384.69;-4.144
9340.22;2384.85;-4.146
9345.21;2384.56;-4.146
9350.19;2384.71;-4.146
9355.18;2384.80;-4.146
9360.17;2384.74;-4.146
9365.16;2384.63;-4.140
9370.14;2384.52;-4.140
9375.13;2384.44;-4.140
9380.12;2384.65;-4.140
9385.10;2384.59;-4.140
9390.09;2384.13;-4.134
9395.08;2384.78;-4.144
9400.07;2380.13;-4.066
9405.05;2384.59;-4.140
9410.04;2384.55;-4.140
9415.03;2384.48;-4.140
9420.01;2384.40;-4.140
9425.28;2387.95;-4.200
9430.27;2384.20;-4.140
9435.26;2384.50;-4.140
9440.24;2384.45;-4.140
9445.23;2384.50;-4.140
9450.22;2384.80;-4.150
9455.21;2384.65;-4.140
9460.19;2384.80;-4.150
9465.16;2384.80;-4.150
9470.11;2384.75;-4.150
9475.10;2384.50;-4.140
9480.08;2384.45;-4.140
9485.07;2384.55;-4.140
9490.06;2384.80;-4.150
9495.05;2384.65;-4.140
9500.03;2384.55;-4.140
9505.02;2384.40;-4.140
9510.01;2384.55;-4.140
9515.28;2384.60;-4.140
9520.27;2384.65;-4.140
9525.25;2384.60;-4.140
9530.24;2384.40;-4.140
9535.23;2384.65;-4.140
9540.21;2384.45;-4.140
9545.20;2384.60;-4.140
9550.19;2384.75;-4.150
9555.18;2384.75;-4.150
9560.17;2384.40;-4.140
9565.15;2384.55;-4.140
9570.14;2384.50;-4.140
9575.13;2384.55;-4.140
9580.11;2385.45;-4.160
9585.10;2384.65;-4.140
9590.09;2384.65;-4.140
9595.08;2384.40;-4.140
9600.06;2384.45;-4.140
9605.05;2384.65;-4.140
9610.04;2384.50;-4.140
9615.03;2384.45;-4.140
9620.01;2384.50;-4.140
9625.00;2384.90;-4.150
9630.59;2384.65;-4.140
9635.58;2384.35;-4.140
9640.56;2384.65;-4.140
9645.55;2384.55;-4.140
9650.54;2384.65;-4.140
9655.53;2384.50;-4.140
9660.51;2384.60;-4.140
9665.45;2384.56;-4.140
9670.43;2384.40;-4.140
9675.42;2384.71;-4.142
9680.41;2384.62;-4.140
9685.39;2384.59;-4.140
9690.38;2384.68;-4.140
9695.37;2384.53;-4.140
9700.36;2384.58;-4.140
9705.34;2384.75;-4.148
9710.33;2384.62;-4.140
9715.32;2384.60;-4.140
9720.30;2384.55;-4.140
9725.29;2384.51;-4.140
9730.28;2384.49;-4.140
9735.27;2384.29;-4.140
9740.25;2384.46;-4.140
9745.24;2384.47;-4.140
9750.23;2384.66;-4.140
9755.22;2384.69;-4.140
9760.20;2384.69;-4.140
9765.19;2384.49;-4.140
9770.18;2384.58;-4.140
9775.17;2384.81;-4.150
9780.15;2384.81;-4.150
9785.14;2384.46;-4.140
9790.13;2384.66;-4.142
9795.11;2384.74;-4.148
9800.10;2384.43;-4.140
9805.09;2384.78;-4.148
9810.08;2384.66;-4.140
9815.07;2384.61;-4.140
9820.05;2384.75;-4.148
9825.04;2384.50;-4.140
9830.03;2384.55;-4.140
9835.01;2384.70;-4.148
9840.28;2384.60;-4.140
9845.27;2384.90;-4.150
9850.26;2384.50;-4.140
9855.25;2384.60;-4.140
9860.23;2384.75;-4.150
9865.22;2384.50;-4.140
9870.21;2384.75;-4.150
9875.20;2384.80;-4.150
9880.18;2384.45;-4.140
9885.17;2384.65;-4.140
9890.16;2384.50;-4.140
9895.14;2384.70;-4.140
9900.13;2384.70;-4.140
9905.12;2384.50;-4.140
9910.10;2384.60;-4.140
9915.09;2384.50;-4.140
9920.08;2384.85;-4.150
9925.07;2384.55;-4.140
9930.05;2384.65;-4.140
9935.04;2384.65;-4.140
9940.03;2384.55;-4.140
9945.01;2384.25;-4.140
9950.00;2384.70;-4.140
9955.59;2384.61;-4.140
9960.58;2384.38;-4.140
9965.56;2384.75;-4.150
9970.55;2384.73;-4.146
9975.54;2384.48;-4.140
9980.53;2384.58;-4.140
9985.51;2384.75;-4.150
9990.50;2384.68;-4.140
9995.49;2384.43;-4.140
10000.47;2384.86;-4.150
10005.46;2384.53;-4.144
10010.45;2384.65;-4.146
10015.44;2385.18;-4.154
10020.42;2384.86;-4.146
10025.41;2384.42;-4.140
10030.40;2384.58;-4.140
10035.38;2384.55;-4.144
10040.37;2385.21;-4.158
10045.36;2385.39;-4.152
10050.34;2384.48;-4.140
10055.33;2384.92;-4.150
10060.32;2384.50;-4.138
10065.31;2376.40;-3.998
10070.29;2385.95;-4.162
10075.28;2385.29;-4.152
10080.27;2386.94;-4.182
10085.25;2382.32;-4.104
10090.20;2382.83;-4.112
10095.17;2383.78;-4.130
10100.16;2383.87;-4.132
10105.15;2383.86;-4.130
10110.13;2384.10;-4.130
10115.12;2384.34;-4.140
10120.11;2377.95;-4.030
10125.10;2380.02;-4.064
10130.08;2383.58;-4.122
10135.07;2385.37;-4.158
10140.06;2385.47;-4.160
10145.04;2385.51;-4.160
10150.03;2385.91;-4.170
10155.02;2386.47;-4.178
10160.01;2386.70;-4.180
10165.28;2387.00;-4.190
10170.26;2386.90;-4.180
10175.25;2386.80;-4.180
10180.24;2386.30;-4.170
10185.23;2385.75;-4.160
10190.21;2385.95;-4.170
10195.20;2385.95;-4.170
10200.19;2386.00;-4.170
10205.17;2386.15;-4.170
10210.16;2385.85;-4.170
10215.15;2385.90;-4.170
10220.14;2385.85;-4.170
10225.12;2385.75;-4.160
10230.11;2385.90;-4.170
10235.10;2385.95;-4.170
10240.09;2385.90;-4.170
10245.07;2386.00;-4.170
10250.06;2386.05;-4.170
10255.05;2386.00;-4.170
10260.04;2386.05;-4.170
10265.02;2385.85;-4.170
10270.01;2385.90;-4.170
10275.28;2386.05;-4.170
10280.27;2386.00;-4.170
10285.26;2385.95;-4.170
10290.25;2385.85;-4.170
10295.23;2386.00;-4.170
10300.22;2386.05;-4.170
10305.20;2386.10;-4.170
10310.19;2385.95;-4.170
10315.18;2385.85;-4.170
10320.17;2385.90;-4.170
10325.16;2386.15;-4.170
10330.14;2386.20;-4.170
10335.13;2386.05;-4.170
10340.12;2386.05;-4.170
10345.11;2385.95;-4.170
10350.09;2385.95;-4.170
10355.08;2386.10;-4.170
10360.04;2385.90;-4.170
10365.60;2385.93;-4.170
10370.58;2385.91;-4.166
10375.57;2385.90;-4.166
10380.56;2385.94;-4.170
10385.55;2385.79;-4.164
10390.54;2386.06;-4.170
10395.52;2385.85;-4.166
10400.51;2386.00;-4.170
10405.50;2385.94;-4.164
10410.48;2386.10;-4.170
10415.47;2386.10;-4.170
10420.46;2385.93;-4.170
10425.45;2385.88;-4.170
10430.43;2385.93;-4.166
10435.42;2385.94;-4.170
10440.41;2386.16;-4.170
10445.39;2386.09;-4.170
10450.38;2386.15;-4.170
10455.37;2386.27;-4.170
10460.36;2386.15;-4.170
10465.34;2386.18;-4.170
10470.33;2386.09;-4.170
10475.32;2386.09;-4.170
10480.30;2386.17;-4.170
10485.29;2386.22;-4.170
10490.28;2386.13;-4.170
10495.27;2385.87;-4.170
10500.25;2385.87;-4.170
10505.24;2386.02;-4.170
10510.23;2386.13;-4.170
10515.22;2386.13;-4.170
10520.21;2386.07;-4.170
10525.19;2386.15;-4.170
10530.18;2386.08;-4.170
10535.17;2385.95;-4.170
10540.15;2386.10;-4.170
10545.14;2386.06;-4.170
10550.13;2385.80;-4.164
10555.12;2385.94;-4.170
10560.10;2386.11;-4.170
10565.09;2386.11;-4.170
10570.08;2386.11;-4.170
10575.07;2386.03;-4.170
10580.05;2385.91;-4.170
10585.04;2385.91;-4.170
10590.03;2386.13;-4.170
10595.01;2386.03;-4.170
10600.00;2386.01;-4.170
10605.27;2385.85;-4.170
10610.26;2386.15;-4.170
10615.25;2386.00;-4.170
10620.23;2386.05;-4.170
10625.22;2385.85;-4.170
10630.21;2386.15;-4.170
10635.20;2386.05;-4.170
10640.18;2386.00;-4.170
10645.17;2386.10;-4.170
10650.16;2386.30;-4.170
10655.15;2385.95;-4.170
10660.13;2385.90;-4.170
10665.12;2386.10;-4.170
10670.11;2386.10;-4.170
10675.10;2385.90;-4.170
10680.08;2386.00;-4.170
10685.07;2386.20;-4.170
10690.06;2385.95;-4.170
10695.05;2385.70;-4.160
10700.03;2386.05;-4.170
10705.02;2386.05;-4.170
10710.01;2386.00;-4.170
10715.60;2386.15;-4.170
10720.58;2385.88;-4.170
10725.57;2386.00;-4.170
10730.56;2385.97;-4.170
10735.54;2385.96;-4.170
10740.53;2386.10;-4.170
10745.52;2385.82;-4.162
10750.51;2385.99;-4.170
10755.49;2386.14;-4.170
10760.48;2385.97;-4.170
10765.47;2386.08;-4.170
10770.46;2385.95;-4.168
10775.44;2385.88;-4.170
10780.43;2386.27;-4.170
10785.42;2386.45;-4.178
10790.40;2386.04;-4.170
10795.39;2386.07;-4.170
10800.02;2385.95;-4.170
10805.59;2385.90;-4.170
10810.58;2385.75;-4.160
10815.57;2386.05;-4.170
10820.56;2385.65;-4.160
10825.54;2386.00;-4.170
10830.53;2385.90;-4.170
10835.52;2385.90;-4.170
10840.51;2385.90;-4.170
10845.49;2385.75;-4.160
10850.48;2385.95;-4.170
10855.47;2385.85;-4.170
10860.42;2386.05;-4.170
10865.39;2386.04;-4.170
10870.37;2385.90;-4.170
10875.36;2386.15;-4.170
10880.35;2386.12;-4.170
10885.34;2386.02;-4.170
10890.32;2386.12;-4.170
10895.31;2385.86;-4.170
10900.30;2386.07;-4.170
10905.29;2386.14;-4.170
10910.27;2386.05;-4.170
10915.26;2386.13;-4.170
10920.25;2386.06;-4.170
10925.24;2386.11;-4.170
10930.22;2384.46;-4.138
10935.21;2386.28;-4.170
10940.20;2385.92;-4.170
10945.19;2441.39;-5.136
10950.17;2390.33;-4.242
10955.16;2391.04;-4.258
10960.15;2364.38;-3.786
10965.14;2384.03;-4.130
10970.12;2384.87;-4.150
10975.11;2385.06;-4.152
10980.10;2385.32;-4.160
10985.08;2385.34;-4.160
10990.07;2385.36;-4.160
10995.06;2385.75;-4.160
11000.05;2385.66;-4.160
11005.04;2380.54;-4.070
11010.02;2382.24;-4.098
11015.01;2385.46;-4.158
11020.28;2386.90;-4.180
11025.27;2386.70;-4.180
11030.25;2387.10;-4.190
11035.24;2387.45;-4.190
11040.23;2387.90;-4.200
11045.22;2387.60;-4.200
11050.15;2388.15;-4.210
11055.13;2387.95;-4.200
11060.12;2388.15;-4.210
11065.10;2387.45;-4.190
11070.09;2387.15;-4.190
11075.07;2386.95;-4.180
11080.07;2386.95;-4.180
11085.05;2386.85;-4.180
11090.04;2386.90;-4.180
11095.04;2386.90;-4.180
11100.02;2386.95;-4.180
11105.00;2386.90;-4.180
11110.59;2386.87;-4.180
11115.58;2386.94;-4.180
11120.56;2386.80;-4.180
11125.55;2386.86;-4.180
11130.53;2386.73;-4.180
11135.53;2386.98;-4.188
11140.52;2386.66;-4.180
11145.49;2386.93;-4.180
11150.50;2386.79;-4.180
11155.48;2386.75;-4.180
11160.47;2386.88;-4.180
11165.46;2386.88;-4.182
11170.44;2386.77;-4.180
11175.43;2386.91;-4.180
11180.42;2386.94;-4.180
11185.41;2386.81;-4.180
11190.39;2386.74;-4.180
11195.38;2386.85;-4.180
11200.37;2386.64;-4.180
11205.36;2386.72;-4.180
11210.34;2386.82;-4.180
11215.33;2386.73;-4.180
11220.32;2386.53;-4.180
11225.31;2386.85;-4.180
11230.29;2386.88;-4.180
11235.28;2386.73;-4.182
11240.27;2386.71;-4.180
11245.26;2386.96;-4.182
11250.25;2386.85;-4.182
11255.23;2386.70;-4.180
11260.22;2386.65;-4.178
11265.21;2386.55;-4.180
11270.19;2386.77;-4.180
11275.18;2386.61;-4.180
11280.17;2386.66;-4.180
11285.16;2386.66;-4.180
11290.14;2386.75;-4.180
11295.13;2386.60;-4.180
11300.12;2386.73;-4.180
11305.11;2386.78;-4.180
11310.09;2386.71;-4.180
11315.08;2386.53;-4.180
11320.07;2386.57;-4.180
11325.05;2386.92;-4.180
11330.04;2386.95;-4.180
11335.03;2386.66;-4.180
11340.02;2386.45;-4.180
11345.00;2386.70;-4.180
11350.28;2387.05;-4.190
11355.26;2386.85;-4.180
11360.25;2386.75;-4.180
11365.24;2386.65;-4.180
11370.22;2386.75;-4.180
11375.21;2386.90;-4.180
11380.20;2386.75;-4.180
11385.19;2386.55;-4.180
11390.17;2386.75;-4.180
11395.16;2386.70;-4.180
11400.15;2386.65;-4.180
11405.14;2386.45;-4.180
11410.12;2386.70;-4.180
11415.11;2386.75;-4.180
11420.10;2386.75;-4.180
11425.08;2386.35;-4.170
11430.07;2386.45;-4.180
11435.06;2386.50;-4.180
11440.04;2385.60;-4.160
11445.03;2386.55;-4.180
11450.02;2387.80;-4.200
11455.01;2386.90;-4.180
11460.28;2386.60;-4.180
11465.24;2386.40;-4.170
11470.20;2386.60;-4.180
11475.18;2386.35;-4.170
11480.17;2386.70;-4.180
11485.16;2386.60;-4.180
11490.15;2386.65;-4.180
11495.13;2386.55;-4.180
11500.12;2386.60;-4.180
11505.11;2386.30;-4.170
11510.09;2386.55;-4.180
11515.08;2386.40;-4.170
11520.07;2386.60;-4.180
11525.06;2386.75;-4.180
11530.04;2386.35;-4.170
11535.03;2386.80;-4.180
11540.02;2386.65;-4.180
11545.01;2386.55;-4.180
11550.59;2386.51;-4.180
11555.58;2386.62;-4.180
11560.57;2386.50;-4.176
11565.56;2386.39;-4.176
11570.54;2386.31;-4.174
11575.53;2386.40;-4.170
11580.52;2386.43;-4.174
11585.51;2386.50;-4.174
11590.49;2386.34;-4.170
11595.48;2386.34;-4.170
11600.47;2386.50;-4.180
11605.46;2386.25;-4.170
11610.44;2386.42;-4.176
11615.43;2386.42;-4.174
11620.42;2386.46;-4.176
11625.41;2386.45;-4.180
11630.39;2386.46;-4.176
11635.38;2386.27;-4.174
11640.37;2386.26;-4.170
11645.36;2386.31;-4.170
11650.34;2386.39;-4.174
11655.33;2386.40;-4.176
11660.32;2386.43;-4.176
11665.31;2386.40;-4.170
11670.29;2386.30;-4.170
11675.28;2386.26;-4.174
11680.27;2385.10;-4.154
11685.26;2386.56;-4.176
11690.24;2387.82;-4.198
11695.23;2387.34;-4.188
11700.22;2389.00;-4.224
11705.21;2388.39;-4.210
11710.19;2387.22;-4.190
11715.18;2387.96;-4.202
11720.17;2393.27;-4.292
11725.16;2371.10;-3.904
11730.14;2383.33;-4.120
11735.13;2384.84;-4.146
11740.12;2385.35;-4.156
11745.11;2386.13;-4.166
11750.09;2385.79;-4.166
11755.08;2380.15;-4.066
11760.07;2382.13;-4.102
11765.05;2385.01;-4.150
11770.04;2388.33;-4.210
11775.03;2387.27;-4.190
11780.02;2387.71;-4.196
11785.00;2388.29;-4.210
11790.28;2388.40;-4.210
11795.26;2388.45;-4.210
11800.25;2388.65;-4.210
11805.24;2388.35;-4.210
11810.22;2388.55;-4.210
11815.21;2387.30;-4.190
11820.20;2387.25;-4.190
11825.18;2386.65;-4.180
11830.17;2387.15;-4.190
11835.16;2387.05;-4.190
11840.15;2387.05;-4.190
11845.13;2387.05;-4.190
11850.12;2386.90;-4.180
11855.11;2387.10;-4.190
11860.10;2386.80;-4.180
11865.08;2386.90;-4.180
11870.07;2386.55;-4.180
11875.06;2387.00;-4.190
11880.05;2386.80;-4.180
11885.03;2386.50;-4.180
11890.02;2387.05;-4.190
11895.01;2395.25;-4.330
11900.59;2440.11;-5.120
11905.58;2389.11;-4.224
11910.57;2386.45;-4.176
11915.56;2388.35;-4.208
11920.54;2384.08;-4.136
11925.53;2384.34;-4.142
11930.52;2381.60;-4.092
11935.51;2384.88;-4.146
11940.49;2385.99;-4.166
11945.48;2385.69;-4.158
11950.47;2385.59;-4.162
11955.46;2385.58;-4.162
11960.44;2386.20;-4.170
11965.43;2386.62;-4.178
11970.42;2386.33;-4.170
11975.40;2386.38;-4.172
11980.39;2386.33;-4.172
11985.38;2386.92;-4.184
11990.37;2386.35;-4.172
11995.01;2380.50;-4.070
12000.57;2381.65;-4.090
12005.55;2386.40;-4.170
12010.54;2390.50;-4.250
12015.53;2387.90;-4.200
12020.51;2388.20;-4.210
12025.50;2388.75;-4.220
12030.49;2388.70;-4.220
12035.48;2388.70;-4.220
12040.46;2388.85;-4.220
12045.45;2388.85;-4.220
12050.44;2389.45;-4.230
12055.43;2387.90;-4.200
12060.41;2387.65;-4.200
12065.40;2387.60;-4.200
12070.39;2387.60;-4.200
12075.37;2387.35;-4.190
12080.36;2387.35;-4.190
12085.35;2387.55;-4.200
12090.33;2387.55;-4.200
12095.32;2387.25;-4.190
12100.31;2387.40;-4.190
12105.29;2387.70;-4.200
12110.28;2387.55;-4.200
12115.27;2387.75;-4.200
12120.26;2387.55;-4.200
12125.25;2387.65;-4.200
12130.23;2387.65;-4.200
12135.22;2387.65;-4.200
12140.21;2387.80;-4.200
12145.19;2387.85;-4.200
12150.18;2388.05;-4.200
12155.17;2387.80;-4.200
12160.15;2388.25;-4.210
12165.14;2388.05;-4.200
12170.13;2387.55;-4.200
12175.12;2387.95;-4.200
12180.10;2387.70;-4.200
12185.09;2387.45;-4.190
12190.08;2387.60;-4.200
12195.06;2387.80;-4.200
12200.05;2387.70;-4.200
12205.04;2387.65;-4.200
12210.03;2387.70;-4.200
12215.01;2387.70;-4.200
12220.28;2387.40;-4.190
12225.27;2388.05;-4.200
12230.26;2387.65;-4.200
12235.24;2387.60;-4.200
12240.23;2387.60;-4.200
12245.22;2413.20;-4.640
12250.20;2387.25;-4.190
12255.19;2387.35;-4.190
12260.18;2387.75;-4.200
12265.17;2389.65;-4.230
12270.15;2387.90;-4.200
12275.14;2387.10;-4.190
12280.13;2386.85;-4.180
12285.12;2384.70;-4.140
12290.10;2386.60;-4.180
12295.09;2387.45;-4.190
12300.08;2387.40;-4.190
12305.06;2391.25;-4.260
12310.55;2413.77;-4.652
12315.53;2388.32;-4.212
12320.51;2387.80;-4.200
12325.50;2389.05;-4.220
12330.49;2388.90;-4.216
12335.47;2388.58;-4.212
12340.46;2389.08;-4.224
12345.45;2389.49;-4.230
12350.43;2389.30;-4.230
12355.42;2389.40;-4.228
12360.41;2389.18;-4.220
12365.40;2389.19;-4.220
12370.38;2389.16;-4.222
12375.37;2389.23;-4.228
12380.36;2390.07;-4.238
12385.35;2389.32;-4.222
12390.33;2389.18;-4.222
12395.32;2389.20;-4.220
12400.31;2389.13;-4.220
12405.29;2389.30;-4.230
12410.28;2389.20;-4.220
12415.27;2389.22;-4.222
12420.47;2389.15;-4.220
12425.47;2389.25;-4.220
12430.46;2391.55;-4.270
12435.44;2389.95;-4.240
12440.43;2389.55;-4.230
12445.42;2389.40;-4.230
12450.40;2389.45;-4.230
12455.39;2388.85;-4.220
12460.38;2388.70;-4.220
12465.37;2387.85;-4.200
12470.34;2389.95;-4.238
12475.28;2387.91;-4.202
12480.27;2388.62;-4.210
12485.26;2389.28;-4.228
12490.25;2389.70;-4.230
12495.23;2389.78;-4.232
12500.22;2389.82;-4.232
12505.21;2389.19;-4.220
12510.20;2387.96;-4.200
12515.18;2387.59;-4.198
12520.17;2387.10;-4.190
12525.16;2386.83;-4.180
12530.14;2386.98;-4.184
12535.13;2387.11;-4.190
12540.12;2387.01;-4.190
12545.11;2386.98;-4.182
12550.09;2387.01;-4.190
12555.08;2387.08;-4.190
12560.07;2386.97;-4.182
12565.06;2386.93;-4.180
12570.04;2386.94;-4.180
12575.03;2387.00;-4.190
12580.02;2386.84;-4.180
12585.01;2386.97;-4.188
12590.28;2386.90;-4.180
12595.26;2386.65;-4.180
12600.25;2386.90;-4.180
12605.24;2386.50;-4.180
12610.23;2386.60;-4.180
12615.21;2386.65;-4.180
12620.20;2386.50;-4.180
12625.19;2386.30;-4.170
12630.18;2386.45;-4.180
12635.16;2386.35;-4.170
12640.15;2386.45;-4.180
12645.14;2386.30;-4.170
12650.13;2386.40;-4.170
12655.11;2385.45;-4.160
12660.10;2388.10;-4.200
12665.09;2387.55;-4.200
12670.07;2386.95;-4.180
12675.06;2386.60;-4.180
12680.05;2385.60;-4.160
12685.04;2386.60;-4.180
12690.02;2386.05;-4.170
12695.01;2382.85;-4.110
12700.60;2386.21;-4.172
12705.59;2385.94;-4.170
12710.57;2391.13;-4.258
12715.56;2385.71;-4.166
12720.55;2385.98;-4.170
12725.54;2385.91;-4.170
12730.52;2385.86;-4.166
12735.51;2385.70;-4.160
12740.50;2385.75;-4.160
12745.49;2385.75;-4.160
12750.47;2385.62;-4.160
12755.46;2382.62;-4.110
12760.45;2387.85;-4.198
12765.43;2386.38;-4.176
12770.42;2382.38;-4.100
12775.41;2389.36;-4.226
12780.36;2385.73;-4.162
12785.33;2385.76;-4.160
12790.32;2385.73;-4.162
12795.30;2385.98;-4.172
12800.29;2385.59;-4.160
12805.28;2384.96;-4.152
12810.27;2385.40;-4.160
12815.25;2385.44;-4.160
12820.24;2385.52;-4.160
12825.23;2385.58;-4.160
12830.21;2385.42;-4.160
12835.20;2385.39;-4.160
12840.19;2385.40;-4.160
12845.18;2385.44;-4.160
12850.16;2385.48;-4.160
12855.15;2384.82;-4.148
12860.14;2384.91;-4.150
12865.13;2385.19;-4.150
12870.11;2385.72;-4.160
12875.10;2385.91;-4.170
12880.09;2386.06;-4.170
12885.08;2386.52;-4.180
12890.06;2386.68;-4.180
12895.05;2386.54;-4.180
12900.04;2386.75;-4.180
12905.02;2386.66;-4.180
12910.01;2386.81;-4.182
12915.28;2386.90;-4.180
12920.27;2386.85;-4.180
12925.26;2386.70;-4.180
12930.24;2386.80;-4.180
12935.23;2386.85;-4.180
12940.22;2386.80;-4.180
12945.21;2387.00;-4.190
12950.19;2386.90;-4.180
12955.18;2388.20;-4.210
12960.17;2386.95;-4.180
12965.15;2386.85;-4.180
12970.14;2387.10;-4.190
12975.13;2387.10;-4.190
12980.12;2386.85;-4.180
12985.08;2387.10;-4.190
12990.04;2386.25;-4.170
12995.02;2387.20;-4.190
13000.01;2386.35;-4.170
13005.28;2387.60;-4.200
13010.27;2387.30;-4.190
13015.25;2386.75;-4.180
13020.24;2385.40;-4.160
13025.23;2386.40;-4.170
13030.22;2388.05;-4.200
13035.20;2387.40;-4.190
13040.19;2386.60;-4.180
13045.18;2385.60;-4.160
13050.17;2386.55;-4.180
13055.15;2387.40;-4.190
13060.14;2387.30;-4.190
13065.13;2387.85;-4.200
13070.11;2387.30;-4.190
13075.10;2386.40;-4.170
13080.09;2388.60;-4.210
13085.08;2385.20;-4.150
13090.06;2387.35;-4.190
13095.05;2387.25;-4.190
13100.04;2387.20;-4.190
13105.02;2386.85;-4.180
13110.01;2386.70;-4.180
13115.60;2386.56;-4.180
13120.59;2386.60;-4.180
13125.57;2386.21;-4.170
13130.56;2385.97;-4.170
13135.55;2386.27;-4.170
13140.54;2386.49;-4.176
13145.52;2386.65;-4.180
13150.51;2386.61;-4.180
13155.50;2386.90;-4.180
13160.49;2386.94;-4.186
13165.47;2387.14;-4.190
13170.46;2387.11;-4.190
13175.45;2387.02;-4.190
13180.43;2387.26;-4.190
13185.42;2387.28;-4.190
13190.41;2387.19;-4.190
13195.39;2387.12;-4.190
13200.38;2387.22;-4.190
13205.37;2386.96;-4.186
13210.36;2387.00;-4.190
13215.34;2386.88;-4.180
13220.33;2386.64;-4.180
13225.32;2386.86;-4.180
13230.30;2386.67;-4.180
13235.29;2386.50;-4.174
13240.28;2386.40;-4.176
13245.27;2386.56;-4.180
13250.25;2386.39;-4.176
13255.24;2386.56;-4.180
13260.23;2386.42;-4.174
13265.21;2386.46;-4.176
13270.20;2386.41;-4.176
13275.19;2386.29;-4.170
13280.18;2386.48;-4.174
13285.16;2386.30;-4.170
13290.15;2386.38;-4.170
13295.14;2386.19;-4.170
13300.13;2386.20;-4.170
13305.11;2386.33;-4.174
13310.10;2386.30;-4.170
13315.09;2386.23;-4.170
13320.07;2386.15;-4.170
13325.06;2386.26;-4.170
13330.05;2386.28;-4.170
13335.03;2386.17;-4.170
13340.02;2386.13;-4.170
13345.01;2386.05;-4.170
13350.28;2386.35;-4.170
13355.27;2386.25;-4.170
