time[s];Vsg[mV];pH/ion concentration [mM]
5.43;1581.22;9.954
10.58;1589.37;9.812
15.42;1615.60;9.348
20.51;1589.03;9.812
25.03;1587.45;9.840
30.41;1655.99;8.640
35.51;1632.37;9.058
40.43;1560.10;10.322
45.42;1422.25;12.742
50.41;1338.89;14.204
55.39;1276.46;15.298
60.41;3740.68;-27.922
65.37;2365.56;-3.798
70.36;2362.32;-3.738
75.34;2359.85;-3.700
80.33;2357.95;-3.660
85.32;2356.44;-3.638
90.31;2355.97;-3.630
95.29;2355.15;-3.614
100.28;2355.00;-3.610
105.21;2354.80;-3.610
110.20;2354.88;-3.610
115.19;2354.95;-3.610
120.18;2353.98;-3.590
125.16;2354.00;-3.590
130.15;2353.03;-3.580
135.14;2352.97;-3.580
140.09;2352.02;-3.560
145.06;2353.01;-3.580
150.28;2354.00;-3.590
155.26;2355.00;-3.610
160.18;2354.00;-3.590
165.12;2353.94;-3.590
170.11;2352.22;-3.564
175.09;2350.92;-3.540
180.08;2349.98;-3.520
185.07;2349.48;-3.514
190.06;2349.57;-3.516
195.04;2348.98;-3.510
200.03;2350.37;-3.530
205.02;2349.98;-3.520
210.01;2349.02;-3.510
215.28;2349.00;-3.510
220.27;2348.00;-3.490
225.25;2347.35;-3.480
230.24;2346.95;-3.470
235.23;2348.00;-3.490
240.22;2348.00;-3.490
245.21;2348.95;-3.510
250.19;2348.95;-3.510
255.18;2348.95;-3.510
260.17;2349.00;-3.510
265.16;2349.70;-3.520
270.15;2349.90;-3.520
275.13;2349.00;-3.510
280.12;2348.90;-3.500
285.11;2348.00;-3.490
290.10;2348.00;-3.490
295.08;2349.00;-3.510
300.07;2350.25;-3.530
305.06;2349.30;-3.510
310.05;2349.00;-3.510
315.03;2348.00;-3.490
320.02;2347.95;-3.490
325.01;2347.70;-3.480
330.60;2347.44;-3.482
335.59;2349.04;-3.510
340.58;2348.96;-3.508
345.56;2347.84;-3.490
350.55;2347.83;-3.490
355.54;2347.83;-3.488
360.53;2347.95;-3.490
365.52;2347.35;-3.480
370.50;2345.99;-3.450
375.49;2347.17;-3.472
380.48;2346.84;-3.468
385.47;2347.15;-3.470
390.46;2344.08;-3.420
395.44;2342.00;-3.380
400.43;2344.80;-3.430
405.42;2345.20;-3.442
410.41;2346.16;-3.452
415.40;2346.02;-3.452
420.04;2346.70;-3.470
425.60;2345.65;-3.450
430.59;2346.00;-3.450
435.58;2346.60;-3.460
440.57;2345.05;-3.440
445.55;2342.10;-3.390
450.54;2339.95;-3.350
455.53;2342.65;-3.390
460.52;2342.55;-3.390
465.51;2344.00;-3.420
470.50;2342.15;-3.390
475.48;2339.00;-3.330
480.47;2342.00;-3.380
485.46;2338.00;-3.310
490.45;2331.95;-3.210
495.44;2322.30;-3.040
500.43;2309.80;-2.820
505.42;2316.50;-2.940
510.40;2320.00;-3.000
515.34;2320.15;-3.002
520.33;2314.76;-2.902
525.32;2312.76;-2.868
530.30;2311.96;-2.860
535.29;2313.40;-2.886
540.25;2316.04;-2.930
545.22;2316.12;-2.930
550.20;2317.03;-2.946
555.19;2317.85;-2.960
560.18;2317.72;-2.960
565.17;2318.25;-2.970
570.16;2319.15;-2.984
575.15;2321.04;-3.020
580.14;2317.76;-2.958
585.13;2317.06;-2.950
590.11;2318.03;-2.960
595.10;2318.08;-2.960
600.09;2317.76;-2.960
605.08;2315.56;-2.924
610.07;2313.94;-2.890
615.06;2312.47;-2.864
620.05;2310.71;-2.834
625.03;2309.98;-2.820
630.03;2309.98;-2.820
635.02;2309.97;-2.820
640.00;2307.08;-2.772
645.27;2309.00;-2.800
650.26;2309.65;-2.820
655.25;2310.00;-2.820
660.24;2309.05;-2.810
665.23;2307.20;-2.770
670.22;2306.00;-2.750
675.21;2305.15;-2.740
680.20;2303.00;-2.700
685.19;2302.45;-2.690
690.17;2301.00;-2.660
695.17;2299.95;-2.650
700.15;2301.95;-2.680
705.14;2302.00;-2.680
710.08;2302.60;-2.690
715.07;2303.00;-2.700
720.05;2302.35;-2.690
725.04;2303.00;-2.700
730.03;2303.00;-2.700
735.02;2303.95;-2.720
740.01;2303.95;-2.720
745.28;2302.00;-2.680
750.27;2297.05;-2.600
755.26;2292.85;-2.520
760.25;2281.05;-2.310
765.24;2271.75;-2.150
770.23;2262.00;-1.980
775.22;2254.55;-1.850
780.20;2248.05;-1.740
785.19;2243.00;-1.650
790.18;2239.00;-1.580
795.17;2236.05;-1.520
800.16;2234.95;-1.510
805.15;2233.95;-1.490
810.14;2229.40;-1.410
815.13;2225.30;-1.340
820.11;2223.25;-1.300
825.11;2223.90;-1.310
830.09;2224.00;-1.310
835.08;2224.00;-1.310
840.07;2225.10;-1.330
845.06;2226.95;-1.370
850.05;2227.85;-1.380
855.04;2225.95;-1.350
860.03;2224.00;-1.310
865.02;2224.00;-1.310
870.01;2224.00;-1.310
875.59;2226.00;-1.350
880.53;2227.16;-1.370
885.52;2228.17;-1.388
890.51;2229.78;-1.416
895.49;2230.14;-1.422
900.48;2229.79;-1.416
905.47;2231.81;-1.448
910.46;2232.99;-1.470
915.45;2233.83;-1.488
920.44;2232.00;-1.450
925.43;2230.08;-1.420
930.42;2229.99;-1.420
935.35;2230.36;-1.426
940.34;2231.00;-1.440
945.33;2231.59;-1.446
950.32;2231.97;-1.450
955.31;2231.83;-1.450
960.29;2230.20;-1.420
965.28;2229.46;-1.408
970.27;2229.03;-1.400
975.26;2230.00;-1.420
980.25;2230.04;-1.420
985.24;2227.60;-1.376
990.23;2228.70;-1.396
995.22;2229.01;-1.400
1000.21;2229.95;-1.420
1005.19;2231.04;-1.440
1010.18;2231.43;-1.446
1015.17;2231.96;-1.450
1020.16;2231.95;-1.450
1025.15;2232.69;-1.466
1030.14;2231.97;-1.450
1035.12;2232.30;-1.456
1040.11;2233.30;-1.474
1045.10;2234.03;-1.490
1050.09;2234.36;-1.494
1055.08;2234.00;-1.490
1060.07;2231.17;-1.438
1065.06;2229.00;-1.400
1070.05;2232.52;-1.462
1075.03;2233.15;-1.474
1080.02;2249.96;-1.770
1085.01;2283.64;-2.362
1090.28;2349.55;-3.520
1095.27;2374.85;-3.960
1100.26;2393.35;-4.280
1105.25;2415.85;-4.680
1110.24;2379.20;-4.040
1115.22;2425.30;-4.850
1120.21;2547.00;-6.980
1125.20;2537.00;-6.800
1130.19;2531.05;-6.700
1135.18;2529.00;-6.660
1140.17;2546.90;-6.980
1145.16;2555.85;-7.140
1150.15;2547.40;-6.990
1155.13;2526.40;-6.620
1160.12;2525.55;-6.600
1165.11;2522.85;-6.560
1170.10;2523.95;-6.580
1175.09;2552.50;-7.080
1180.08;2556.35;-7.140
1185.06;2552.00;-7.070
1190.05;2550.00;-7.030
1195.04;2548.00;-7.000
1200.03;2546.95;-6.980
1205.02;2545.10;-6.950
1210.01;2542.00;-6.890
1215.60;2542.59;-6.904
1220.58;2542.11;-6.892
1225.57;2542.04;-6.890
1230.56;2541.95;-6.890
1235.55;2541.77;-6.890
1240.54;2560.10;-7.212
1245.53;2560.00;-7.210
1250.52;2560.00;-7.210
1255.50;2561.96;-7.240
1260.49;2562.62;-7.252
1265.48;2563.06;-7.262
1270.47;2562.93;-7.260
1275.46;2563.18;-7.262
1280.10;2563.00;-7.260
1285.06;2562.50;-7.250
1290.05;2561.95;-7.240
1295.04;2561.80;-7.240
1300.03;2560.95;-7.220
1305.01;2560.95;-7.220
1310.60;2561.00;-7.230
1315.59;2561.00;-7.230
1320.58;2561.00;-7.230
1325.57;2561.00;-7.230
1330.56;2561.05;-7.230
1335.54;2560.80;-7.220
1340.53;2561.00;-7.230
1345.52;2562.75;-7.260
1350.51;2563.10;-7.260
1355.49;2564.00;-7.280
1360.48;2563.95;-7.280
1365.47;2564.00;-7.280
1370.46;2564.05;-7.280
1375.45;2564.00;-7.280
1380.44;2564.65;-7.290
1385.43;2563.95;-7.280
1390.41;2564.00;-7.280
1395.40;2562.20;-7.250
1400.39;2559.55;-7.200
1405.38;2544.75;-6.940
1410.37;2516.00;-6.440
1415.32;2553.88;-7.100
1420.29;2512.63;-6.380
1425.28;2512.00;-6.370
1430.26;2511.99;-6.370
1435.25;2511.80;-6.366
1440.24;2518.15;-6.470
1445.23;2508.18;-6.302
1450.21;2504.80;-6.242
1455.20;2498.40;-6.130
1460.19;2498.20;-6.124
1465.18;2497.14;-6.104
1470.17;2497.00;-6.100
1475.16;2496.99;-6.100
1480.14;2496.48;-6.092
1485.13;2495.18;-6.072
1490.12;2493.82;-6.050
1495.11;2490.14;-5.982
1500.10;2487.96;-5.942
1505.08;2483.64;-5.870
1510.07;2466.80;-5.572
1515.06;2464.32;-5.532
1520.05;2461.28;-5.474
1525.04;2461.19;-5.474
1530.03;2460.00;-5.450
1535.01;2458.61;-5.430
1540.28;2458.00;-5.420
1545.27;2457.45;-5.410
1550.26;2456.85;-5.400
1555.25;2456.70;-5.400
1560.24;2456.60;-5.390
1565.22;2456.00;-5.380
1570.21;2456.00;-5.380
1575.20;2457.00;-5.400
1580.19;2456.85;-5.400
1585.18;2459.10;-5.440
1590.17;2457.00;-5.400
1595.15;2457.95;-5.420
1600.14;2456.25;-5.390
1605.13;2456.15;-5.390
1610.12;2455.00;-5.370
1615.11;2454.90;-5.360
1620.09;2456.50;-5.390
1625.08;2456.00;-5.380
1630.07;2455.00;-5.370
1635.05;2455.00;-5.370
1640.05;2455.00;-5.370
1645.03;2455.50;-5.370
1650.02;2456.40;-5.390
1655.01;2455.15;-5.370
1660.60;2455.11;-5.370
1665.59;2454.49;-5.356
1670.57;2454.98;-5.370
1675.56;2456.07;-5.384
1680.55;2456.18;-5.384
1685.54;2457.78;-5.416
1690.53;2546.81;-6.974
1695.52;2508.40;-6.302
1700.50;2467.36;-5.582
1705.49;2463.98;-5.520
1710.48;2462.63;-5.502
1715.47;2462.16;-5.490
1720.45;2465.36;-5.550
1725.44;2462.41;-5.494
1730.43;2457.98;-5.420
1735.42;2457.69;-5.416
1740.41;2462.98;-5.506
1745.39;2457.12;-5.400
1750.38;2457.62;-5.414
1755.37;2462.35;-5.498
1760.36;2460.35;-5.460
1765.34;2460.03;-5.450
1770.33;2460.95;-5.470
1775.32;2462.59;-5.502
1780.27;2461.51;-5.480
1785.24;2460.98;-5.470
1790.23;2462.00;-5.490
1795.45;2461.90;-5.490
1800.40;2463.04;-5.506
1805.36;2462.98;-5.508
1810.34;2463.63;-5.518
1815.32;2463.35;-5.510
1820.32;2464.12;-5.528
1825.30;2465.99;-5.560
1830.30;2465.78;-5.556
1835.28;2465.09;-5.540
1840.27;2464.79;-5.540
1845.25;2465.73;-5.556
1850.25;2555.14;-7.124
1855.24;2513.00;-6.380
1860.22;2472.59;-5.678
1865.21;2468.00;-5.590
1870.19;2467.99;-5.590
1875.19;2467.96;-5.590
1880.18;2466.45;-5.564
1885.17;2465.45;-5.550
1890.14;2466.58;-5.572
1895.14;2464.12;-5.524
1900.12;2462.94;-5.508
1905.12;2463.88;-5.520
1910.09;2462.13;-5.492
1915.05;2462.92;-5.504
1920.03;2462.37;-5.496
1925.01;2464.38;-5.528
1930.27;2463.15;-5.510
1935.27;2463.50;-5.520
1940.26;2463.95;-5.520
1945.25;2464.20;-5.530
1950.24;2465.90;-5.560
1955.21;2465.85;-5.560
1960.21;2463.90;-5.520
1965.20;2463.85;-5.520
1970.19;2464.00;-5.520
1975.18;2464.80;-5.540
1980.16;2465.25;-5.550
1985.14;2467.60;-5.590
1990.14;2465.90;-5.560
1995.13;2464.95;-5.540
2000.11;2464.00;-5.520
2005.10;2464.00;-5.520
2010.08;2467.55;-5.590
2015.07;2465.00;-5.540
2020.05;2464.00;-5.520
2025.05;2463.95;-5.520
2030.04;2462.85;-5.500
2035.02;2462.90;-5.500
2040.00;2463.50;-5.520
2045.60;2466.35;-5.566
2050.58;2464.67;-5.536
2055.57;2463.96;-5.520
2060.56;2465.00;-5.540
2065.21;2465.15;-5.540
2070.17;2465.60;-5.550
2075.16;2465.95;-5.560
2080.14;2466.50;-5.570
2085.12;2467.05;-5.580
2090.10;2466.65;-5.570
2095.09;2466.35;-5.570
2100.03;2467.85;-5.590
2105.51;1697.85;7.908
2110.00;1757.20;6.870
2115.08;1763.20;6.760
2120.47;1752.73;6.942
2125.53;1741.08;7.150
2130.03;1724.15;7.450
2135.42;1690.85;8.034
2140.50;1691.61;8.016
2145.57;1691.35;8.020
2150.40;1690.93;8.028
2155.47;1691.47;8.018
2160.53;1691.90;8.010
2165.32;1692.60;8.002
2170.40;1720.49;7.510
2175.48;1750.55;6.980
2180.29;1772.03;6.606
2185.38;1772.13;6.604
2190.45;1770.60;6.630
2195.25;1773.33;6.584
2200.33;1773.63;6.578
2205.42;1774.55;6.560
2210.21;1775.18;6.552
2215.30;1777.64;6.508
2220.37;1784.95;6.380
2225.19;1787.70;6.334
2230.25;1795.15;6.198
2235.34;1855.80;5.140
2240.15;1854.87;5.150
2245.21;1854.67;5.154
2250.27;1855.24;5.142
2255.09;1855.95;5.134
2260.17;1855.05;5.150
2265.25;1858.52;5.088
2270.06;1858.41;5.090
2275.13;1859.58;5.070
2280.21;1856.07;5.128
2285.02;1854.68;5.158
2290.10;1854.46;5.160
2295.17;1855.77;5.140
2300.25;1856.60;5.120
2305.06;1857.04;5.116
2310.12;1936.99;3.712
2315.22;1938.15;3.690
2320.03;1938.45;3.686
2325.09;1939.27;3.670
2330.17;1937.80;3.700
2335.26;1938.10;3.690
2340.05;1946.59;3.546
2345.13;1961.00;3.290
2350.21;1963.55;3.250
2355.02;1965.21;3.218
2360.09;1968.25;3.160
2365.17;1979.00;2.970
2370.25;1990.05;2.780
2375.06;2026.95;2.130
2380.14;2027.45;2.120
2385.20;2030.25;2.080
2390.01;2027.75;2.120
2395.10;2027.25;2.130
2400.16;2028.60;2.100
2405.26;2029.15;2.090
2410.07;2028.40;2.110
2415.13;2026.50;2.140
2420.21;2026.60;2.140
2425.02;2027.35;2.130
2430.09;2029.25;2.090
2435.17;2057.40;1.600
2440.25;2084.90;1.120
2445.26;2128.75;0.350
2450.16;2107.05;0.730
2455.16;2085.80;1.100
2460.55;2082.88;1.152
2465.04;2081.55;1.180
2470.04;2082.25;1.160
2475.11;2080.20;1.200
2480.52;2076.04;1.270
2485.00;2076.00;1.270
2490.08;2075.25;1.290
2495.13;2105.90;0.750
2500.02;2124.90;0.420
2505.50;2127.57;0.372
2510.09;2123.20;0.450
2515.56;2129.40;0.334
2520.46;2138.32;0.176
2525.56;2150.81;-0.030
2530.41;2151.10;-0.036
2535.54;2151.32;-0.040
2540.55;2175.50;-0.460
2545.34;2181.92;-0.578
2550.39;2182.16;-0.578
2555.45;2183.90;-0.606
2560.50;2183.85;-0.610
2565.28;2183.90;-0.610
2570.34;2180.80;-0.558
2575.39;2178.58;-0.520
2580.45;2179.55;-0.530
2585.24;2181.47;-0.570
2590.29;2180.50;-0.550
2595.33;2180.26;-0.548
2600.39;2178.80;-0.522
2605.17;2178.19;-0.510
2610.23;2179.38;-0.530
2615.28;2178.82;-0.520
2620.32;2178.25;-0.510
2625.37;2179.10;-0.530
2630.16;2179.04;-0.526
2635.23;2178.21;-0.510
2640.27;2167.25;-0.320
2645.32;2167.80;-0.330
2650.12;2167.75;-0.324
2655.18;2164.66;-0.270
2660.22;2156.07;-0.122
2665.02;2160.20;-0.198
2670.08;2163.12;-0.246
2675.13;2163.73;-0.254
2680.17;2166.06;-0.300
2685.25;2167.35;-0.320
2690.03;2171.06;-0.384
2695.08;2173.55;-0.430
2700.14;2174.90;-0.452
2705.20;2174.45;-0.440
2710.24;2174.35;-0.440
2715.02;2177.56;-0.498
2720.09;2173.10;-0.424
2725.15;2171.50;-0.390
2730.19;2169.20;-0.350
2735.25;2169.80;-0.360
2740.03;2172.79;-0.412
2745.09;2176.10;-0.470
2750.14;2176.90;-0.490
2755.19;2178.85;-0.520
2760.23;2179.20;-0.530
2765.01;2179.60;-0.530
2770.05;2181.65;-0.570
2775.10;2181.90;-0.570
2780.15;2185.00;-0.630
2785.18;2186.25;-0.650
2790.23;2185.05;-0.630
2795.27;2185.25;-0.630
2800.04;2180.90;-0.560
2805.09;2178.75;-0.520
2810.13;2178.70;-0.520
2815.18;2175.10;-0.460
2820.04;2259.55;-1.940
2825.03;2275.85;-2.220
2830.25;2275.75;-2.220
2835.17;2307.90;-2.790
2840.10;2317.75;-2.960
2845.09;2501.00;-6.170
2850.04;2500.45;-6.160
2855.01;2503.95;-6.220
2860.58;2502.75;-6.206
2865.54;2501.07;-6.170
2870.52;2499.95;-6.150
2875.50;2495.85;-6.086
2880.49;2491.12;-5.998
2885.48;2486.48;-5.918
2890.47;2482.68;-5.848
2895.45;2480.79;-5.818
2900.44;2479.03;-5.790
2905.43;2476.99;-5.750
2910.42;2475.78;-5.728
2915.40;2473.94;-5.700
2920.38;2471.99;-5.660
2925.60;2472.00;-5.660
2930.55;2471.81;-5.658
2935.51;2470.74;-5.640
2940.50;2472.00;-5.660
2945.50;2472.08;-5.662
2950.48;2471.95;-5.660
2955.46;2470.83;-5.642
2960.45;2468.89;-5.610
2965.43;2468.00;-5.590
2970.43;2466.88;-5.574
2975.42;2466.17;-5.562
2980.40;2463.11;-5.504
2985.38;2463.34;-5.510
2990.38;2463.76;-5.518
2995.36;2463.92;-5.520
3000.35;2462.91;-5.502
3005.33;2462.91;-5.508
3010.33;2463.51;-5.512
3015.31;2463.05;-5.510
3020.29;2463.44;-5.518
3025.28;2464.00;-5.520
3030.28;2463.93;-5.520
3035.26;2463.99;-5.520
3040.24;2464.99;-5.540
3045.23;2464.82;-5.540
3050.21;2464.76;-5.540
3055.21;2464.95;-5.540
3060.20;2464.90;-5.538
3065.18;2465.05;-5.540
3070.17;2465.24;-5.544
3075.15;2462.19;-5.494
3080.08;2460.95;-5.470
3085.07;2461.00;-5.470
3090.06;2460.21;-5.454
3095.05;2459.83;-5.450
3100.04;2460.27;-5.460
3105.02;2460.61;-5.464
3110.01;2460.36;-5.464
3115.28;2460.00;-5.450
3120.27;2459.95;-5.450
3125.22;2459.95;-5.450
3130.18;2458.10;-5.420
3135.17;2458.00;-5.420
3140.16;2458.00;-5.420
3145.14;2458.00;-5.420
3150.13;2458.00;-5.420
3155.12;2459.70;-5.450
3160.10;2458.55;-5.430
3165.09;2456.45;-5.390
3170.08;2457.40;-5.410
3175.06;2457.95;-5.420
3180.05;2458.00;-5.420
3185.04;2458.55;-5.430
3190.03;2459.25;-5.440
3195.01;2459.65;-5.450
3200.28;2460.90;-5.470
3205.27;2461.00;-5.470
3210.25;2460.20;-5.460
3215.24;2460.00;-5.450
3220.23;2460.95;-5.470
3225.21;2461.00;-5.470
3230.20;2461.35;-5.480
3235.19;2462.00;-5.490
3240.18;2462.90;-5.500
3245.16;2462.00;-5.490
3250.15;2462.00;-5.490
3255.13;2462.20;-5.490
3260.12;2461.30;-5.480
3265.11;2461.90;-5.490
3270.09;2459.40;-5.440
3275.08;2458.95;-5.440
3280.06;2457.00;-5.400
3285.05;2455.00;-5.370
3290.04;2453.95;-5.350
3295.03;2454.00;-5.350
3300.01;2453.80;-5.350
3305.60;2453.25;-5.340
3310.59;2455.25;-5.370
3315.57;2456.95;-5.400
3320.56;2459.05;-5.440
3325.55;2459.95;-5.450
3330.53;2460.40;-5.460
3335.52;2461.00;-5.470
3340.47;2460.99;-5.470
3345.38;2460.93;-5.470
3350.37;2461.11;-5.470
3355.35;2461.61;-5.480
3360.34;2461.00;-5.470
3365.33;2459.99;-5.450
3370.31;2459.50;-5.450
3375.30;2459.98;-5.450
3380.29;2460.95;-5.470
3385.27;2461.83;-5.486
3390.21;2461.95;-5.490
3395.19;2462.00;-5.490
3400.18;2463.82;-5.520
3405.17;2463.05;-5.510
3410.15;2463.34;-5.510
3415.14;2463.95;-5.520
3420.13;2464.03;-5.520
3425.11;2463.12;-5.510
3430.10;2463.02;-5.510
3435.09;2463.62;-5.516
3440.04;2462.91;-5.502
3445.00;2462.96;-5.510
3450.27;2464.00;-5.520
3455.26;2465.05;-5.540
3460.25;2464.00;-5.520
3465.23;2463.95;-5.520
3470.22;2463.00;-5.510
3475.21;2462.95;-5.510
3480.20;2463.60;-5.520
3485.18;2462.95;-5.510
3490.17;2463.10;-5.510
3495.16;2462.05;-5.490
3500.14;2462.90;-5.500
3505.13;2463.35;-5.510
3510.11;2462.95;-5.510
3515.10;2462.75;-5.500
3520.09;2462.00;-5.490
3525.07;2462.00;-5.490
3530.06;2462.10;-5.490
3535.05;2462.40;-5.500
3540.04;2461.95;-5.490
3545.02;2462.00;-5.490
3550.24;2462.95;-5.510
3555.22;2463.45;-5.520
3560.21;2463.00;-5.510
3565.20;2464.00;-5.520
3570.18;2463.00;-5.510
3575.17;2462.00;-5.490
3580.16;2462.80;-5.500
3585.14;2461.05;-5.470
3590.13;2460.80;-5.470
3595.12;2460.00;-5.450
3600.10;2461.30;-5.480
3605.09;2462.80;-5.500
3610.08;2461.95;-5.490
3615.07;2462.95;-5.510
3620.05;2463.95;-5.520
3625.04;2464.15;-5.530
3630.03;2464.95;-5.540
3635.01;2465.40;-5.550
3640.60;2465.97;-5.560
3645.59;2464.97;-5.540
3650.57;2464.87;-5.540
3655.56;2464.12;-5.526
3660.55;2463.98;-5.520
3665.54;2464.16;-5.524
3670.52;2464.00;-5.520
3675.51;2465.00;-5.540
3680.50;2465.93;-5.560
3685.48;2466.00;-5.560
3690.47;2465.47;-5.550
3695.46;2465.00;-5.540
3700.44;2465.81;-5.560
3705.43;2465.40;-5.550
3710.42;2465.00;-5.540
3715.40;2465.00;-5.540
3720.39;2465.00;-5.540
3725.38;2464.67;-5.534
3730.36;2463.99;-5.524
3735.35;2464.33;-5.530
3740.34;2463.98;-5.520
3745.32;2463.50;-5.520
3750.31;2462.71;-5.500
3755.30;2462.42;-5.500
3760.28;2461.88;-5.490
3765.27;2460.91;-5.470
3770.26;2460.00;-5.450
3775.25;2459.92;-5.450
3780.23;2459.00;-5.440
3785.22;2458.20;-5.424
3790.21;2458.15;-5.420
3795.19;2458.11;-5.420
3800.18;2457.64;-5.410
3805.17;2457.20;-5.410
3810.16;2457.06;-5.400
3815.14;2457.00;-5.400
3820.13;2456.60;-5.394
3825.12;2456.03;-5.386
3830.10;2456.00;-5.380
3835.09;2455.81;-5.380
3840.08;2455.98;-5.380
3845.06;2456.00;-5.380
3850.05;2456.00;-5.380
3855.04;2456.00;-5.380
3860.02;2456.02;-5.384
3865.01;2456.03;-5.386
3870.28;2456.15;-5.390
3875.27;2456.60;-5.400
3880.25;2456.05;-5.390
3885.24;2456.00;-5.380
3890.23;2456.00;-5.380
3895.16;2455.95;-5.380
3900.15;2456.05;-5.390
3905.13;2456.95;-5.400
3910.12;2455.80;-5.380
3915.11;2455.55;-5.380
3920.09;2455.75;-5.380
3925.08;2455.95;-5.380
3930.07;2455.15;-5.370
3935.05;2455.00;-5.370
3940.04;2454.95;-5.370
3945.03;2454.45;-5.360
3950.01;2454.00;-5.350
3955.00;2454.15;-5.350
3960.27;2455.00;-5.370
3965.26;2455.25;-5.370
3970.25;2456.00;-5.380
3975.23;2457.00;-5.400
3980.22;2458.00;-5.420
3985.21;2456.95;-5.400
3990.19;2457.00;-5.400
3995.18;2456.00;-5.380
4000.17;2456.80;-5.400
4005.15;2457.60;-5.410
4010.14;2457.85;-5.420
4015.13;2458.00;-5.420
4020.08;2458.45;-5.430
4025.05;2459.15;-5.440
4030.03;2459.65;-5.450
4035.02;2460.25;-5.460
4040.01;2460.55;-5.460
4045.59;2461.00;-5.470
4050.58;2461.00;-5.470
4055.57;2461.61;-5.480
4060.56;2461.37;-5.480
4065.55;2461.99;-5.490
4070.48;2462.58;-5.496
4075.46;2462.95;-5.510
4080.42;2462.27;-5.496
4085.38;2459.98;-5.450
4090.37;2459.23;-5.444
4095.35;2460.30;-5.458
4100.34;2460.03;-5.456
4105.33;2460.00;-5.450
4110.32;2460.00;-5.450
4115.30;2460.95;-5.470
4120.29;2462.53;-5.500
4125.28;2462.33;-5.496
4130.27;2461.71;-5.486
4135.25;2461.98;-5.490
4140.24;2462.00;-5.490
4145.23;2462.00;-5.490
4150.21;2462.15;-5.494
4155.20;2462.67;-5.500
4160.19;2462.90;-5.510
4165.18;2463.40;-5.514
4170.16;2463.93;-5.520
4175.15;2463.18;-5.510
4180.13;2463.82;-5.520
4185.12;2463.65;-5.516
4190.11;2462.98;-5.510
4195.10;2462.90;-5.510
4200.08;2462.43;-5.496
4205.07;2462.87;-5.504
4210.06;2462.52;-5.500
4215.04;2462.99;-5.510
4220.03;2463.92;-5.520
4225.02;2463.95;-5.520
4230.00;2462.95;-5.510
4235.28;2463.70;-5.520
4240.26;2464.35;-5.530
4245.25;2464.75;-5.540
4250.24;2464.90;-5.540
4255.22;2464.90;-5.540
4260.21;2465.00;-5.540
4265.20;2465.20;-5.550
4270.19;2465.70;-5.550
4275.17;2466.00;-5.560
4280.16;2466.05;-5.560
4285.14;2467.00;-5.580
4290.13;2467.60;-5.590
4295.12;2466.00;-5.560
4300.10;2465.80;-5.560
4305.09;2465.95;-5.560
4310.08;2465.95;-5.560
4315.06;2466.05;-5.560
4320.05;2465.95;-5.560
4325.04;2465.75;-5.560
4330.02;2465.20;-5.550
4335.01;2464.15;-5.530
4340.28;2463.75;-5.520
4345.27;2463.25;-5.510
4350.25;2462.95;-5.510
4355.24;2463.30;-5.510
4360.23;2463.40;-5.510
4365.21;2464.00;-5.520
4370.20;2464.00;-5.520
4375.19;2464.15;-5.530
4380.17;2464.95;-5.540
4385.16;2465.95;-5.560
4390.14;2465.00;-5.540
4395.13;2465.00;-5.540
4400.12;2464.95;-5.540
4405.11;2465.85;-5.560
4410.09;2466.00;-5.560
4415.08;2466.00;-5.560
4420.06;2466.00;-5.560
4425.04;2466.00;-5.560
4430.58;2465.95;-5.560
4435.57;2465.99;-5.560
4440.55;2465.40;-5.550
4445.54;2466.21;-5.560
4450.53;2466.30;-5.562
4455.51;2466.08;-5.560
4460.50;2466.30;-5.570
4465.48;2466.20;-5.560
4470.47;2466.44;-5.568
4475.46;2466.89;-5.578
4480.44;2466.71;-5.572
4485.43;2466.56;-5.570
4490.42;2466.91;-5.578
4495.40;2467.00;-5.580
4500.39;2467.17;-5.582
4505.38;2467.00;-5.580
4510.36;2467.00;-5.580
4515.35;2466.66;-5.570
4520.34;2466.07;-5.562
4525.32;2465.00;-5.540
4530.31;2463.95;-5.520
4535.29;2464.12;-5.528
4540.28;2464.03;-5.522
4545.27;2464.00;-5.520
4550.25;2463.80;-5.520
4555.24;2463.23;-5.510
4560.23;2463.87;-5.520
4565.21;2463.96;-5.520
4570.20;2464.00;-5.520
4575.19;2463.79;-5.520
4580.17;2463.18;-5.510
4585.16;2463.68;-5.520
4590.15;2464.00;-5.520
4595.13;2464.82;-5.540
4600.12;2464.79;-5.540
4605.10;2464.86;-5.540
4610.09;2465.55;-5.548
4615.08;2466.00;-5.560
4620.06;2466.09;-5.560
4625.05;2467.72;-5.588
4630.04;2467.93;-5.590
4635.02;2468.98;-5.610
4640.01;2469.94;-5.630
4645.28;2469.90;-5.630
4650.26;2469.00;-5.610
4655.25;2469.05;-5.610
4660.23;2469.00;-5.610
4665.22;2468.60;-5.610
4670.21;2468.90;-5.610
4675.20;2468.00;-5.590
4680.18;2467.20;-5.580
4685.17;2466.95;-5.580
4690.15;2466.40;-5.570
4695.14;2466.00;-5.560
4700.13;2466.00;-5.560
4705.11;2466.70;-5.570
4710.10;2466.00;-5.560
4715.09;2466.70;-5.570
4720.07;2466.95;-5.580
4725.06;2466.15;-5.560
4730.04;2465.25;-5.550
4735.03;2465.30;-5.550
4740.01;2465.00;-5.540
4745.60;2464.13;-5.530
4750.58;2464.36;-5.530
4755.57;2465.16;-5.544
4760.56;2466.01;-5.560
4765.54;2466.86;-5.576
4770.53;2466.25;-5.564
4775.52;2466.17;-5.560
4780.50;2466.14;-5.560
4785.49;2467.35;-5.586
4790.48;2466.98;-5.580
4795.46;2467.06;-5.580
4800.45;2467.00;-5.580
4805.43;2467.03;-5.580
4810.42;2466.53;-5.570
4815.40;2466.11;-5.560
4820.39;2466.00;-5.560
4825.38;2466.33;-5.564
4830.37;2466.89;-5.574
4835.35;2466.21;-5.564
4840.34;2466.98;-5.580
4845.32;2466.89;-5.574
4850.31;2466.84;-5.576
4855.29;2465.98;-5.560
4860.28;2465.89;-5.560
4865.27;2465.72;-5.554
4870.25;2465.41;-5.550
4875.24;2465.20;-5.546
4880.23;2465.80;-5.554
4885.21;2465.70;-5.556
4890.20;2465.11;-5.540
4895.18;2465.09;-5.544
4900.17;2465.00;-5.540
4905.16;2464.46;-5.530
4910.14;2465.25;-5.544
4915.13;2464.95;-5.540
4920.11;2464.84;-5.540
4925.10;2464.93;-5.540
4930.09;2464.13;-5.530
4935.07;2464.02;-5.524
4940.06;2464.74;-5.540
4945.04;2464.79;-5.540
4950.03;2464.51;-5.534
4955.02;2464.91;-5.540
4960.00;2464.93;-5.540
4965.27;2465.00;-5.540
4970.26;2465.20;-5.550
4975.24;2465.00;-5.540
4980.23;2464.20;-5.530
4985.21;2464.80;-5.540
4990.20;2465.00;-5.540
4995.19;2465.95;-5.560
5000.17;2465.95;-5.560
5005.16;2466.05;-5.560
5010.15;2466.00;-5.560
5015.13;2466.25;-5.560
5020.12;2466.00;-5.560
5025.10;2465.00;-5.540
5030.09;2464.95;-5.540
5035.08;2464.10;-5.530
5040.06;2464.40;-5.530
5045.05;2464.65;-5.540
5050.03;2465.20;-5.550
5055.02;2467.00;-5.580
5060.01;2465.95;-5.560
5065.28;2464.95;-5.540
5070.26;2464.95;-5.540
5075.25;2465.70;-5.550
5080.23;2470.40;-5.640
5085.22;2464.75;-5.540
5090.21;2463.80;-5.520
5095.19;2463.85;-5.520
5100.18;2464.00;-5.520
5105.16;2463.85;-5.520
5110.15;2463.60;-5.520
5115.13;2463.00;-5.510
5120.12;2462.95;-5.510
5125.10;2463.05;-5.510
5130.09;2463.00;-5.510
5135.08;2462.95;-5.510
5140.06;2461.95;-5.490
5145.05;2461.95;-5.490
5150.03;2462.00;-5.490
5155.02;2461.80;-5.490
5160.00;2462.00;-5.490
5165.59;2461.85;-5.490
5170.57;2462.05;-5.490
5175.56;2461.95;-5.490
5180.54;2462.00;-5.490
5185.53;2463.00;-5.510
5190.52;2463.05;-5.510
5195.50;2462.85;-5.500
5200.49;2463.10;-5.510
5205.47;2463.00;-5.510
5210.46;2463.05;-5.510
5215.44;2462.90;-5.510
5220.43;2462.90;-5.510
5225.42;2463.55;-5.520
5230.40;2463.00;-5.510
5235.39;2462.10;-5.490
5240.37;2462.00;-5.490
5245.36;2461.90;-5.490
5250.34;2461.15;-5.470
5255.33;2461.00;-5.470
5260.32;2460.95;-5.470
5265.30;2460.40;-5.460
5270.29;2461.10;-5.470
5275.27;2461.05;-5.470
5280.26;2460.90;-5.470
5285.24;2461.00;-5.470
5290.23;2461.05;-5.470
5295.21;2461.00;-5.470
5300.20;2461.85;-5.490
5305.18;2463.00;-5.510
5310.17;2463.10;-5.510
5315.16;2462.80;-5.500
5320.14;2461.80;-5.490
5325.13;2461.00;-5.470
5330.11;2461.00;-5.470
5335.10;2461.20;-5.480
5340.08;2461.45;-5.480
5345.07;2461.65;-5.480
5350.06;2461.55;-5.480
5355.04;2461.80;-5.490
5360.03;2461.15;-5.470
5365.01;2461.90;-5.490
5370.28;2462.00;-5.490
5375.27;2461.95;-5.490
5380.25;2461.95;-5.490
5385.24;2462.00;-5.490
5390.22;2462.00;-5.490
5395.21;2461.85;-5.490
5400.20;2461.50;-5.480
5405.18;2461.00;-5.470
5410.17;2460.35;-5.460
5415.15;2460.80;-5.470
5420.14;2460.75;-5.470
5425.12;2460.75;-5.470
5430.11;2461.05;-5.470
5435.09;2461.15;-5.470
5440.08;2461.10;-5.470
5445.07;2461.85;-5.490
5450.05;2461.45;-5.480
5455.04;2461.10;-5.470
5460.02;2461.05;-5.470
5465.01;2461.75;-5.490
5470.59;2461.24;-5.474
5475.58;2461.31;-5.480
5480.56;2461.76;-5.484
5485.55;2461.69;-5.486
5490.53;2461.97;-5.490
5495.52;2461.95;-5.490
5500.47;2462.02;-5.490
5505.38;2462.00;-5.490
5510.59;2462.10;-5.490
5515.48;2462.08;-5.490
5520.37;2462.00;-5.490
5525.55;2461.90;-5.490
5530.51;2461.83;-5.490
5535.29;2461.36;-5.478
5540.52;2462.00;-5.490
5545.49;2461.75;-5.490
5550.47;2461.65;-5.480
5555.46;2461.00;-5.470
5560.44;2461.00;-5.470
5565.43;2460.95;-5.470
5570.42;2461.60;-5.480
5575.40;2461.00;-5.470
5580.39;2461.00;-5.470
5585.37;2461.00;-5.470
5590.36;2461.80;-5.490
5595.34;2462.45;-5.500
5600.33;2462.95;-5.510
5605.31;2462.70;-5.500
5610.30;2462.90;-5.510
5615.28;2463.00;-5.510
5620.27;2461.90;-5.490
5625.25;2461.50;-5.480
5630.24;2461.85;-5.490
5635.23;2461.70;-5.480
5640.21;2461.30;-5.480
5645.19;2462.20;-5.490
5650.18;2463.00;-5.510
5655.17;2463.65;-5.520
5660.15;2464.05;-5.530
5665.14;2463.95;-5.520
5670.12;2464.10;-5.530
5675.11;2464.00;-5.520
5680.09;2462.85;-5.500
5685.08;2462.15;-5.490
5690.06;2462.55;-5.500
5695.05;2460.70;-5.470
5700.03;2459.65;-5.450
5705.02;2458.35;-5.430
5710.00;2458.00;-5.420
5715.27;2457.80;-5.420
5720.26;2456.40;-5.390
5725.24;2455.10;-5.370
5730.23;2454.75;-5.360
5735.21;2454.10;-5.350
5740.14;2454.00;-5.350
5745.12;2454.00;-5.350
5750.11;2454.00;-5.350
5755.10;2454.00;-5.350
5760.08;2454.05;-5.350
5765.06;2455.10;-5.370
5770.05;2455.90;-5.380
5775.04;2455.15;-5.370
5780.02;2454.65;-5.360
5785.01;2454.00;-5.350
5790.59;2453.97;-5.350
5795.58;2453.13;-5.330
5800.56;2453.92;-5.350
5805.55;2453.67;-5.340
5810.53;2454.00;-5.350
5815.52;2453.97;-5.350
5820.44;2454.02;-5.350
5825.07;2454.00;-5.350
5830.04;2454.00;-5.350
5835.03;2455.00;-5.370
5840.01;2455.25;-5.370
5845.00;2454.90;-5.370
5850.59;2455.20;-5.370
5855.57;2455.20;-5.370
5860.55;2455.45;-5.370
5865.54;2455.70;-5.380
5870.52;2455.05;-5.370
5875.51;2454.95;-5.370
5880.50;2454.95;-5.370
5885.48;2455.00;-5.370
5890.47;2454.95;-5.370
5895.45;2454.80;-5.360
5900.44;2454.85;-5.360
5905.42;2455.55;-5.380
5910.41;2456.20;-5.390
5915.39;2456.40;-5.390
5920.38;2456.20;-5.390
5925.36;2457.05;-5.400
5930.35;2457.25;-5.410
5935.33;2457.00;-5.400
5940.32;2457.00;-5.400
5945.30;2456.80;-5.400
5950.29;2456.60;-5.400
5955.27;2456.95;-5.400
5960.26;2456.00;-5.380
5965.24;2456.00;-5.380
5970.23;2456.00;-5.380
5975.21;2456.00;-5.380
5980.20;2455.95;-5.380
5985.18;2455.95;-5.380
5990.17;2455.95;-5.380
5995.15;2456.00;-5.380
6000.14;2456.00;-5.380
6005.12;2455.95;-5.380
6010.11;2456.00;-5.380
6015.10;2455.75;-5.380
6020.08;2456.30;-5.390
6025.06;2457.00;-5.400
6030.05;2457.30;-5.410
6035.04;2457.95;-5.420
6040.26;2458.05;-5.420
6045.23;2458.90;-5.440
6050.22;2458.00;-5.420
6055.20;2457.45;-5.410
6060.19;2457.00;-5.400
6065.17;2457.00;-5.400
6070.16;2457.00;-5.400
6075.14;2457.00;-5.400
6080.13;2456.95;-5.400
6085.12;2456.00;-5.380
6090.10;2456.95;-5.400
6095.09;2457.95;-5.420
6100.03;2459.05;-5.440
6105.60;2459.07;-5.440
6110.21;2459.00;-5.440
6115.20;2458.45;-5.430
6120.18;2456.00;-5.380
6125.17;2453.50;-5.340
6130.10;2452.05;-5.320
6135.08;2451.95;-5.310
6140.06;2452.00;-5.310
6145.02;2452.60;-5.320
6150.58;2452.00;-5.310
6155.57;2452.00;-5.310
6160.55;2452.76;-5.324
6165.54;2451.78;-5.310
6170.51;2451.54;-5.304
6175.45;2451.95;-5.310
6180.44;2452.22;-5.320
6185.42;2452.03;-5.316
6190.41;2451.97;-5.310
6195.39;2452.00;-5.310
6200.38;2452.01;-5.314
6205.36;2453.50;-5.344
6210.35;2465.80;-5.560
6215.33;2478.52;-5.782
6220.32;2485.35;-5.898
6225.31;2488.98;-5.964
6230.29;2489.99;-5.980
6235.28;2490.95;-6.000
6240.26;2491.16;-6.000
6245.25;2491.71;-6.010
6250.23;2491.78;-6.010
6255.22;2491.13;-6.000
6260.20;2491.07;-6.000
6265.19;2491.11;-6.000
6270.13;2491.08;-6.000
6275.10;2490.87;-5.998
6280.09;2490.79;-5.992
6285.07;2491.04;-6.000
6290.06;2490.95;-6.000
6295.04;2491.00;-6.000
6300.03;2490.84;-6.000
6305.02;2490.59;-5.990
6310.00;2490.03;-5.980
6315.27;2490.60;-5.990
6320.26;2490.85;-6.000
6325.24;2490.95;-6.000
6330.23;2490.70;-5.990
6335.21;2490.75;-5.990
6340.20;2490.25;-5.990
6345.18;2490.90;-6.000
6350.17;2490.55;-5.990
6355.15;2490.95;-6.000
6360.14;2491.00;-6.000
6365.12;2491.10;-6.000
6370.11;2491.95;-6.020
6375.10;2491.55;-6.010
6380.08;2491.25;-6.000
6385.07;2491.70;-6.010
6390.05;2490.80;-6.000
6395.04;2490.90;-6.000
6400.03;2490.60;-5.990
6405.01;2490.30;-5.990
6410.28;2491.00;-6.000
6415.26;2491.10;-6.000
6420.25;2491.95;-6.020
6425.24;2491.95;-6.020
6430.22;2492.00;-6.020
6435.21;2492.00;-6.020
6440.14;2491.95;-6.020
6445.12;2491.95;-6.020
6450.11;2491.70;-6.010
6455.09;2490.80;-6.000
6460.08;2489.10;-5.970
6465.06;2488.90;-5.960
6470.05;2489.30;-5.970
6475.03;2489.60;-5.970
6480.02;2489.60;-5.970
6485.00;2490.00;-5.980
6490.53;2489.42;-5.970
6495.50;2490.00;-5.980
6500.11;2489.65;-5.970
6505.04;2489.90;-5.980
6510.55;2489.51;-5.970
6515.46;2490.00;-5.980
6520.39;2488.96;-5.960
6525.37;2488.93;-5.960
6530.36;2488.93;-5.960
6535.34;2488.31;-5.950
6540.33;2487.88;-5.942
6545.31;2486.93;-5.930
6550.30;2487.75;-5.940
6555.28;2487.99;-5.948
6560.27;2487.60;-5.940
6565.52;2487.05;-5.930
6570.46;2486.80;-5.920
6575.45;2487.35;-5.930
6580.44;2486.05;-5.910
6585.42;2485.00;-5.890
6590.41;2484.60;-5.890
6595.39;2484.10;-5.880
6600.38;2484.00;-5.880
6605.36;2483.05;-5.860
6610.35;2482.55;-5.850
6615.33;2483.05;-5.860
6620.32;2484.00;-5.880
6625.30;2484.00;-5.880
6630.29;2482.90;-5.860
6635.27;2478.50;-5.780
6640.26;2471.65;-5.660
6645.25;2464.30;-5.530
6650.23;2459.05;-5.440
6655.22;2456.20;-5.390
6660.20;2454.40;-5.360
6665.19;2454.50;-5.360
6670.17;2454.55;-5.360
6675.16;2455.05;-5.370
6680.14;2454.00;-5.350
6685.13;2453.55;-5.340
6690.10;2453.12;-5.330
6695.04;2453.00;-5.330
6700.03;2453.00;-5.330
6705.01;2452.96;-5.330
6710.28;2452.75;-5.330
6715.27;2452.60;-5.320
6720.25;2452.65;-5.330
6725.24;2452.90;-5.330
6730.22;2452.60;-5.320
6735.21;2452.15;-5.320
6740.19;2452.15;-5.320
6745.18;2452.30;-5.320
6750.16;2452.30;-5.320
6755.15;2452.10;-5.320
6760.13;2452.10;-5.320
6765.12;2452.15;-5.320
6770.10;2451.95;-5.310
6775.09;2451.75;-5.310
6780.08;2451.65;-5.310
6785.06;2452.30;-5.320
6790.05;2452.40;-5.320
6795.03;2452.20;-5.320
6800.02;2452.00;-5.310
6805.60;2452.13;-5.320
6810.59;2452.50;-5.320
6815.57;2452.50;-5.320
6820.56;2453.00;-5.330
6825.54;2453.30;-5.340
6830.53;2453.48;-5.340
6835.52;2453.69;-5.340
6840.50;2454.29;-5.354
6845.49;2454.60;-5.360
6850.47;2454.42;-5.356
6855.46;2454.55;-5.360
6860.44;2454.44;-5.360
6865.43;2454.86;-5.366
6870.41;2454.99;-5.370
6875.40;2455.34;-5.370
6880.38;2455.35;-5.374
6885.37;2455.48;-5.376
6890.35;2455.93;-5.380
6895.34;2455.36;-5.370
6900.32;2454.23;-5.350
6905.31;2454.12;-5.350
6910.29;2454.23;-5.350
6915.28;2453.09;-5.330
6920.26;2453.69;-5.340
6925.25;2454.18;-5.350
6930.23;2453.79;-5.346
6935.22;2452.71;-5.330
6940.21;2453.05;-5.334
6945.19;2453.50;-5.340
6950.17;2453.38;-5.340
6955.16;2453.30;-5.340
6960.15;2453.26;-5.340
6965.13;2453.67;-5.340
6970.12;2453.57;-5.340
6975.10;2453.30;-5.340
6980.09;2453.54;-5.340
6985.07;2453.77;-5.346
6990.06;2454.39;-5.354
6995.04;2455.88;-5.380
7000.03;2455.97;-5.384
7005.02;2456.21;-5.390
7010.28;2455.70;-5.380
7015.27;2455.15;-5.370
7020.25;2452.70;-5.330
7025.24;2452.95;-5.330
7030.23;2452.40;-5.320
7035.21;2451.90;-5.310
7040.19;2452.10;-5.320
7045.18;2452.35;-5.320
7050.17;2452.15;-5.320
7055.15;2449.50;-5.270
7060.13;2450.95;-5.300
7065.12;2450.75;-5.290
7070.11;2449.10;-5.260
7075.09;2448.00;-5.240
7080.08;2447.60;-5.240
7085.06;2446.45;-5.220
7090.05;2445.85;-5.210
7095.03;2445.15;-5.190
7100.02;2444.50;-5.180
7105.01;2443.80;-5.170
7110.27;2443.30;-5.160
7115.24;2443.30;-5.160
7120.18;2443.60;-5.170
7125.17;2443.25;-5.160
7130.15;2442.65;-5.150
7135.14;2442.30;-5.150
7140.13;2442.35;-5.150
7145.11;2441.85;-5.140
7150.10;2442.40;-5.150
7155.08;2440.55;-5.110
7160.07;2440.50;-5.110
7165.06;2441.00;-5.120
7170.04;2441.40;-5.130
7175.02;2441.80;-5.140
7180.01;2441.70;-5.130
7185.60;2440.94;-5.120
7190.58;2440.66;-5.120
7195.57;2440.36;-5.110
7200.55;2440.17;-5.110
7205.54;2440.25;-5.110
7210.52;2440.39;-5.110
7215.51;2440.49;-5.110
7220.50;2440.77;-5.120
7225.48;2441.38;-5.130
7230.46;2441.38;-5.130
7235.45;2441.37;-5.130
7240.44;2440.64;-5.120
7245.42;2440.23;-5.110
7250.41;2440.35;-5.110
7255.39;2440.51;-5.110
7260.38;2440.68;-5.120
7265.36;2441.48;-5.130
7270.35;2441.47;-5.130
7275.33;2440.86;-5.120
7280.32;2440.70;-5.120
7285.31;2440.76;-5.120
7290.29;2440.65;-5.120
7295.28;2440.90;-5.120
7300.26;2441.13;-5.120
7305.19;2441.50;-5.130
7310.18;2441.60;-5.130
7315.16;2441.71;-5.136
7320.15;2441.66;-5.134
7325.13;2441.64;-5.130
7330.12;2441.49;-5.130
7335.10;2441.56;-5.130
7340.09;2441.48;-5.130
7345.08;2441.60;-5.130
7350.06;2442.03;-5.140
7355.05;2441.71;-5.134
7360.03;2442.35;-5.150
7365.02;2442.46;-5.150
7370.00;2442.79;-5.150
7375.27;2443.15;-5.160
7380.25;2443.35;-5.160
7385.24;2443.10;-5.160
7390.23;2442.55;-5.150
7395.21;2442.40;-5.150
7400.20;2442.40;-5.150
7405.19;2443.25;-5.160
7410.17;2442.30;-5.150
7415.15;2442.00;-5.140
7420.14;2441.90;-5.140
7425.12;2441.55;-5.130
7430.11;2441.95;-5.140
7435.10;2442.60;-5.150
7440.08;2443.30;-5.160
7445.07;2443.50;-5.170
7450.05;2443.45;-5.170
7455.04;2443.30;-5.160
7460.02;2443.10;-5.160
7465.01;2442.75;-5.150
7470.60;2442.60;-5.150
7475.58;2442.35;-5.150
7480.57;2442.35;-5.150
7485.55;2438.74;-5.082
7490.22;2440.00;-5.100
7495.15;2440.50;-5.110
7500.13;2440.60;-5.120
7505.06;2440.75;-5.120
7510.05;2440.15;-5.110
7515.03;2440.60;-5.120
7520.02;2440.15;-5.110
7525.00;2439.65;-5.100
7530.59;2439.36;-5.090
7535.58;2438.87;-5.082
7540.56;2438.45;-5.080
7545.55;2438.43;-5.080
7550.53;2438.67;-5.080
7555.52;2438.73;-5.080
7560.50;2439.01;-5.090
7565.49;2438.98;-5.090
7570.47;2439.11;-5.090
7575.41;2439.58;-5.100
7580.33;2439.23;-5.090
7585.32;2439.39;-5.090
7590.30;2439.26;-5.090
7595.29;2439.40;-5.090
7600.28;2439.26;-5.090
7605.26;2438.27;-5.070
7610.25;2437.44;-5.060
7615.23;2437.21;-5.056
7620.22;2436.88;-5.050
7625.20;2436.60;-5.050
7630.19;2436.56;-5.046
7635.12;2436.51;-5.040
7640.10;2436.05;-5.040
7645.09;2435.79;-5.030
7650.08;2436.16;-5.040
7655.06;2435.69;-5.030
7660.05;2435.55;-5.030
7665.03;2435.30;-5.020
7670.02;2434.98;-5.020
7675.28;2434.75;-5.010
7680.27;2434.50;-5.010
7685.26;2434.65;-5.010
7690.25;2434.95;-5.020
7695.23;2435.40;-5.020
7700.21;2435.40;-5.020
7705.20;2435.50;-5.030
7710.19;2436.10;-5.040
7715.17;2436.20;-5.040
7720.16;2436.90;-5.050
7725.14;2436.95;-5.050
7730.13;2437.55;-5.060
7735.11;2437.55;-5.060
7740.10;2437.65;-5.060
7745.08;2439.05;-5.090
7750.07;2439.60;-5.100
7755.06;2439.70;-5.100
7760.04;2439.60;-5.100
7765.02;2439.40;-5.090
7770.01;2438.70;-5.080
7775.28;2438.75;-5.080
7780.26;2438.45;-5.080
7785.25;2438.45;-5.080
7790.23;2438.50;-5.080
7795.22;2438.05;-5.070
7800.20;2438.30;-5.070
7805.19;2437.95;-5.070
7810.13;2438.20;-5.070
7815.05;2438.50;-5.080
7820.03;2438.60;-5.080
7825.02;2439.55;-5.100
7830.00;2440.25;-5.110
7835.59;2440.40;-5.110
7840.57;2440.23;-5.110
7845.56;2440.37;-5.110
7850.54;2440.83;-5.116
7855.53;2438.71;-5.078
7860.52;2437.94;-5.068
7865.50;2438.82;-5.082
7870.48;2437.91;-5.070
7875.47;2437.86;-5.070
7880.46;2437.90;-5.070
7885.44;2437.59;-5.060
7890.42;2437.84;-5.070
7895.41;2437.79;-5.070
7900.40;2438.04;-5.070
7905.38;2437.62;-5.060
7910.37;2437.48;-5.060
7915.35;2437.48;-5.060
7920.33;2437.57;-5.060
7925.28;2436.57;-5.048
7930.25;2435.33;-5.020
7935.23;2434.87;-5.018
7940.22;2434.48;-5.010
7945.20;2434.49;-5.010
7950.19;2435.06;-5.020
7955.17;2435.00;-5.020
7960.16;2445.61;-5.202
7965.14;2462.02;-5.488
7970.13;2470.12;-5.634
7975.11;2473.84;-5.700
7980.10;2475.12;-5.722
7985.08;2475.77;-5.730
7990.07;2475.28;-5.720
7995.05;2475.15;-5.720
8000.04;2473.95;-5.700
8005.02;2472.80;-5.680
8010.01;2472.88;-5.680
8015.27;2472.95;-5.680
8020.26;2473.25;-5.690
8025.24;2473.10;-5.690
8030.23;2473.00;-5.680
8035.21;2473.00;-5.680
8040.20;2472.90;-5.680
8045.18;2472.80;-5.680
8050.17;2472.95;-5.680
8055.15;2472.40;-5.670
8060.14;2472.40;-5.670
8065.12;2472.35;-5.670
8070.11;2472.45;-5.670
8075.09;2472.65;-5.680
8080.08;2472.80;-5.680
8085.06;2472.65;-5.680
8090.05;2473.30;-5.690
8095.03;2473.20;-5.690
8100.02;2473.00;-5.680
8105.00;2473.40;-5.690
8110.27;2473.45;-5.690
8115.26;2473.60;-5.690
8120.24;2474.00;-5.700
8125.22;2473.80;-5.700
8130.21;2473.65;-5.690
8135.19;2474.15;-5.700
8140.18;2473.95;-5.700
8145.16;2473.55;-5.690
8150.15;2473.45;-5.690
8155.14;2472.95;-5.680
8160.12;2472.75;-5.680
8165.11;2472.45;-5.670
8170.09;2471.70;-5.660
8175.08;2471.50;-5.660
8180.06;2471.45;-5.660
8185.05;2471.65;-5.660
8190.03;2472.00;-5.670
8195.02;2472.35;-5.670
8200.00;2472.45;-5.670
8205.59;2472.39;-5.670
8210.57;2471.32;-5.652
8215.56;2470.09;-5.632
8220.54;2470.02;-5.630
8225.53;2469.57;-5.620
8230.51;2469.07;-5.612
8235.50;2469.25;-5.618
8240.49;2469.62;-5.622
8245.47;2469.18;-5.620
8250.45;2469.16;-5.618
8255.44;2468.80;-5.610
8260.42;2468.42;-5.600
8265.41;2467.92;-5.592
8270.39;2467.41;-5.590
8275.38;2467.10;-5.580
8280.36;2467.31;-5.580
8285.35;2467.18;-5.580
8290.33;2467.03;-5.580
8295.29;2467.40;-5.590
8300.25;2467.33;-5.580
8305.23;2467.14;-5.580
8310.22;2467.07;-5.580
8315.20;2466.75;-5.576
8320.19;2467.20;-5.580
8325.17;2468.45;-5.604
8330.16;2466.95;-5.574
8335.14;2459.96;-5.452
8340.13;2465.53;-5.556
8345.11;2466.03;-5.560
8350.10;2466.24;-5.566
8355.08;2466.07;-5.560
8360.07;2466.33;-5.570
8365.05;2467.29;-5.586
8370.04;2467.73;-5.590
8375.02;2467.12;-5.584
8380.01;2463.62;-5.518
8385.28;2456.60;-5.400
8390.26;2449.25;-5.270
8395.25;2442.15;-5.140
8400.23;2437.10;-5.050
8405.22;2435.05;-5.020
8410.20;2433.90;-5.000
8415.18;2433.00;-4.980
8420.17;2432.80;-4.980
8425.16;2432.35;-4.970
8430.14;2432.30;-4.970
8435.13;2432.55;-4.970
8440.11;2432.90;-4.980
8445.10;2432.95;-4.980
8450.08;2432.80;-4.980
8455.07;2432.65;-4.980
8460.04;2433.40;-4.990
8465.26;2432.90;-4.980
8470.25;2433.15;-4.980
8475.18;2433.15;-4.980
8480.16;2433.35;-4.990
8485.15;2433.50;-4.990
8490.13;2433.65;-4.990
8495.12;2433.55;-4.990
8500.10;2433.45;-4.990
8505.09;2433.50;-4.990
8510.02;2433.80;-5.000
8515.00;2433.60;-4.990
8520.59;2433.82;-4.996
8525.57;2434.63;-5.010
8530.56;2434.66;-5.010
8535.54;2434.47;-5.010
8540.53;2434.76;-5.010
8545.51;2434.73;-5.010
8550.50;2434.64;-5.010
8555.48;2434.95;-5.020
8560.47;2434.70;-5.010
8565.45;2434.50;-5.010
8570.44;2434.18;-5.000
8575.42;2434.01;-5.000
8580.41;2433.69;-4.996
8585.39;2433.73;-4.996
8590.38;2433.85;-5.000
8595.36;2434.12;-5.000
8600.35;2434.47;-5.010
8605.33;2435.04;-5.020
8610.32;2435.11;-5.020
8615.30;2435.41;-5.020
8620.29;2435.81;-5.030
8625.27;2436.45;-5.040
8630.26;2436.77;-5.050
8635.24;2437.36;-5.060
8640.23;2436.90;-5.050
8645.21;2436.75;-5.050
8650.20;2436.27;-5.040
8655.18;2435.37;-5.020
8660.17;2434.98;-5.020
8665.16;2434.67;-5.010
8670.14;2434.43;-5.010
8675.12;2434.47;-5.010
8680.11;2434.46;-5.010
8685.09;2434.31;-5.004
8690.08;2434.23;-5.000
8695.07;2434.39;-5.006
8700.05;2434.55;-5.010
8705.04;2434.49;-5.010
8710.02;2435.04;-5.020
8715.01;2435.16;-5.020
8720.28;2435.40;-5.020
8725.26;2434.95;-5.020
8730.24;2434.80;-5.010
8735.23;2434.75;-5.010
8740.21;2434.70;-5.010
8745.20;2434.60;-5.010
8750.18;2434.20;-5.000
8755.17;2435.60;-5.030
8760.16;2434.25;-5.000
8765.14;2431.60;-4.960
8770.08;2432.40;-4.970
8775.05;2432.45;-4.970
8780.04;2432.20;-4.970
8785.02;2431.60;-4.960
8790.01;2431.45;-4.950
8795.28;2429.70;-4.920
8800.26;2428.10;-4.900
8805.25;2429.00;-4.910
8810.23;2429.05;-4.910
8815.21;2428.60;-4.900
8820.21;2428.90;-4.910
8825.14;2428.30;-4.900
8830.11;2427.05;-4.880
8835.10;2425.80;-4.860
8840.09;2425.05;-4.840
8845.07;2424.10;-4.830
8850.05;2423.30;-4.810
8855.04;2422.55;-4.800
8860.03;2421.65;-4.780
8865.01;2421.35;-4.780
8870.60;2420.58;-4.762
8875.58;2420.66;-4.768
8880.57;2420.77;-4.770
8885.55;2421.44;-4.778
8890.54;2421.68;-4.780
8895.52;2421.55;-4.780
8900.51;2421.45;-4.780
8905.49;2421.39;-4.780
8910.48;2421.15;-4.772
8915.46;2421.53;-4.780
8920.45;2421.76;-4.782
8925.43;2422.28;-4.790
8930.42;2422.55;-4.800
8935.40;2422.76;-4.800
8940.39;2422.43;-4.800
8945.37;2421.90;-4.790
8950.36;2421.45;-4.780
8955.34;2421.05;-4.770
8960.33;2421.22;-4.778
8965.31;2421.53;-4.780
8970.30;2421.45;-4.780
8975.28;2421.70;-4.780
8980.26;2421.93;-4.790
8985.20;2422.04;-4.790
8990.18;2422.37;-4.800
8995.17;2422.34;-4.794
9000.12;2422.47;-4.800
9005.08;2422.38;-4.800
9010.06;2422.30;-4.790
9015.05;2422.13;-4.790
9020.04;2421.61;-4.780
9025.02;2421.29;-4.776
9030.00;2420.74;-4.770
9035.27;2420.00;-4.750
9040.26;2419.75;-4.750
9045.25;2419.90;-4.750
9050.23;2420.00;-4.750
9055.21;2419.95;-4.750
9060.20;2419.85;-4.750
9065.18;2419.65;-4.750
9070.17;2419.60;-4.750
9075.15;2419.75;-4.750
9080.14;2419.65;-4.750
9085.12;2419.65;-4.750
9090.11;2419.70;-4.750
9095.09;2419.55;-4.750
9100.08;2419.50;-4.750
9105.06;2419.30;-4.740
9110.05;2419.30;-4.740
9115.04;2419.10;-4.740
9120.02;2418.90;-4.730
9125.00;2419.20;-4.740
9130.27;2419.35;-4.740
9135.26;2419.50;-4.750
9140.24;2419.40;-4.740
9145.23;2419.40;-4.740
9150.17;2419.65;-4.750
9155.14;2419.40;-4.740
9160.12;2423.15;-4.810
9165.11;2413.00;-4.630
9170.09;2416.10;-4.690
9175.05;2417.90;-4.720
9180.01;2418.00;-4.720
9185.54;2418.08;-4.720
9190.53;2418.22;-4.720
9195.51;2418.00;-4.720
9200.50;2417.57;-4.710
9205.48;2417.46;-4.710
9210.46;2417.80;-4.720
9215.45;2417.85;-4.720
9220.44;2417.95;-4.720
9225.42;2417.21;-4.704
9230.41;2417.73;-4.710
9235.39;2417.81;-4.716
9240.38;2417.64;-4.710
9245.36;2417.74;-4.714
9250.35;2418.18;-4.720
9255.33;2418.53;-4.730
9260.32;2418.83;-4.734
9265.30;2419.47;-4.744
9270.29;2419.78;-4.750
9275.27;2419.90;-4.750
9280.26;2419.70;-4.750
9285.24;2419.61;-4.750
9290.23;2419.78;-4.750
9295.21;2420.06;-4.756
9300.20;2420.53;-4.760
9305.18;2420.85;-4.770
9310.17;2421.31;-4.780
9315.15;2421.27;-4.780
9320.14;2421.31;-4.780
9325.12;2421.39;-4.780
9330.11;2421.57;-4.780
9335.09;2421.45;-4.780
9340.08;2421.07;-4.770
9345.06;2420.39;-4.760
9350.05;2419.49;-4.746
9355.03;2418.57;-4.730
9360.02;2418.33;-4.720
9365.00;2417.96;-4.720
9370.27;2417.50;-4.710
9375.26;2417.35;-4.710
9380.24;2417.05;-4.700
9385.22;2417.10;-4.700
9390.21;2416.80;-4.700
9395.20;2417.00;-4.700
9400.18;2416.70;-4.700
9405.17;2416.65;-4.690
9410.15;2416.95;-4.700
9415.13;2416.55;-4.690
9420.07;2416.40;-4.690
9425.03;2416.35;-4.690
9430.26;2415.80;-4.680
9435.24;2415.85;-4.680
9440.23;2415.85;-4.680
9445.21;2415.80;-4.680
9450.14;2415.00;-4.670
9455.12;2415.15;-4.670
9460.06;2414.55;-4.660
9465.05;2414.55;-4.660
9470.01;2414.35;-4.650
9475.24;2414.35;-4.650
9480.23;2413.85;-4.650
9485.16;2413.65;-4.640
9490.14;2413.75;-4.640
9495.09;2413.90;-4.650
9500.05;2414.00;-4.650
9505.04;2414.30;-4.650
9510.03;2414.65;-4.660
9515.01;2414.85;-4.660
9520.59;2414.81;-4.660
9525.58;2414.77;-4.660
9530.53;2415.08;-4.666
9535.49;2415.17;-4.670
9540.43;2415.38;-4.670
9545.06;2415.40;-4.670
9550.01;2415.30;-4.670
9555.56;2415.35;-4.670
9560.53;2415.47;-4.672
9565.52;2415.50;-4.670
9570.50;2415.63;-4.680
9575.49;2415.56;-4.680
9580.46;2415.41;-4.670
9585.40;2415.41;-4.670
9590.39;2415.40;-4.670
9595.37;2414.71;-4.660
9600.33;2414.55;-4.660
9605.29;2414.43;-4.660
9610.27;2414.46;-4.660
9615.26;2414.02;-4.650
9620.24;2413.81;-4.646
9625.23;2413.55;-4.640
9630.21;2413.36;-4.640
9635.20;2413.29;-4.636
9640.18;2413.15;-4.630
9645.17;2413.26;-4.634
9650.11;2412.98;-4.630
9655.33;2412.70;-4.630
9660.29;2412.65;-4.620
9665.22;2412.69;-4.622
9670.21;2412.58;-4.620
9675.19;2412.36;-4.620
9680.18;2412.39;-4.620
9685.12;2412.51;-4.620
9690.09;2412.47;-4.620
9695.08;2412.39;-4.620
9700.06;2412.41;-4.620
9705.04;2412.58;-4.620
9710.03;2412.55;-4.620
9715.01;2412.96;-4.632
9720.00;2412.09;-4.616
9725.27;2411.65;-4.610
9730.24;2410.60;-4.590
9735.18;2411.30;-4.600
9740.17;2411.45;-4.600
9745.15;2411.40;-4.600
9750.14;2411.10;-4.600
9755.12;2411.35;-4.600
9760.11;2411.50;-4.600
9765.09;2411.40;-4.600
9770.08;2410.60;-4.590
9775.06;2411.50;-4.600
9780.01;2412.50;-4.620
9785.26;2424.70;-4.840
9790.24;2440.30;-5.110
9795.23;2448.70;-5.260
9800.21;2452.35;-5.320
9805.20;2453.70;-5.340
9810.18;2454.40;-5.360
9815.17;2454.45;-5.360
9820.16;2454.05;-5.350
9825.14;2453.50;-5.340
9830.12;2452.50;-5.320
9835.11;2452.00;-5.320
9840.09;2452.05;-5.320
9845.06;2451.75;-5.310
9850.56;2451.67;-5.310
9855.48;2451.65;-5.310
9860.11;2451.45;-5.310
9865.07;2451.80;-5.310
9870.03;2451.80;-5.310
9875.59;2451.87;-5.310
9880.54;2451.97;-5.314
9885.50;2451.85;-5.314
9890.49;2451.69;-5.310
9895.47;2451.46;-5.304
9900.46;2451.14;-5.300
9905.44;2450.77;-5.290
9910.43;2450.63;-5.290
9915.36;2450.38;-5.290
9920.34;2450.02;-5.280
9925.33;2449.70;-5.276
9930.31;2449.56;-5.270
9935.30;2449.52;-5.270
9940.28;2449.34;-5.270
9945.26;2449.19;-5.266
9950.46;2448.80;-5.260
9955.41;2448.75;-5.260
9960.39;2449.40;-5.270
9965.33;2449.20;-5.270
9970.30;2449.06;-5.260
9975.23;2448.70;-5.260
9980.22;2448.48;-5.254
9985.15;2448.34;-5.250
9990.13;2447.75;-5.240
9995.12;2447.47;-5.236
10000.10;2446.84;-5.226
10005.04;2446.55;-5.220
10010.27;2446.30;-5.220
10015.22;2445.95;-5.210
10020.21;2446.15;-5.210
10025.16;2446.19;-5.210
10030.12;2446.12;-5.210
10035.05;2446.11;-5.210
10040.04;2445.76;-5.206
10045.02;2445.71;-5.206
10050.01;2445.79;-5.206
10055.23;2446.15;-5.210
10060.20;2446.20;-5.210
10065.13;2446.30;-5.220
10070.11;2446.50;-5.220
10075.04;2446.60;-5.220
10080.03;2446.55;-5.220
10085.01;2446.35;-5.220
10090.28;2445.60;-5.200
10095.26;2445.55;-5.200
10100.25;2444.95;-5.190
10105.23;2444.45;-5.180
10110.21;2444.25;-5.180
10115.20;2444.20;-5.180
10120.13;2443.95;-5.170
10125.06;2443.70;-5.170
10130.27;2444.00;-5.170
10135.25;2443.80;-5.170
10140.19;2443.60;-5.170
10145.16;2443.65;-5.170
10150.09;2443.90;-5.170
10155.08;2444.20;-5.180
10160.01;2444.25;-5.180
10165.54;2444.40;-5.180
10170.52;2444.46;-5.180
10175.14;2444.55;-5.180
10180.05;2444.65;-5.190
10185.04;2444.60;-5.190
10190.00;2444.60;-5.190
10195.55;2444.58;-5.186
10200.54;2444.54;-5.184
10205.50;2444.50;-5.180
10210.45;2444.44;-5.180
10215.43;2444.46;-5.180
10220.42;2444.40;-5.180
10225.40;2444.22;-5.180
10230.33;2443.75;-5.170
10235.57;2443.35;-5.160
10240.51;2443.11;-5.160
10245.45;2442.93;-5.158
10250.42;2442.58;-5.150
10255.37;2442.48;-5.150
10260.31;2442.26;-5.146
10265.28;2441.78;-5.140
10270.26;2441.66;-5.134
10275.25;2441.57;-5.130
10280.21;2441.59;-5.130
10285.41;2441.55;-5.130
10290.36;2441.53;-5.130
10295.30;2441.48;-5.130
10300.23;2441.53;-5.130
10305.21;2441.63;-5.130
10310.20;2441.47;-5.130
10315.18;2441.55;-5.130
10320.14;2441.52;-5.130
10325.05;2441.43;-5.130
10330.02;2441.20;-5.130
10335.24;2440.50;-5.110
10340.22;2441.50;-5.130
10345.20;2441.25;-5.130
10350.19;2440.90;-5.120
10355.17;2440.45;-5.110
10360.16;2439.25;-5.090
10365.14;2438.95;-5.090
10370.13;2438.90;-5.090
10375.11;2439.05;-5.090
10380.10;2438.70;-5.080
10385.08;2439.10;-5.090
10390.07;2439.10;-5.090
10395.05;2438.80;-5.080
10400.04;2438.55;-5.080
10405.02;2438.55;-5.080
10410.00;2438.35;-5.080
10415.27;2437.90;-5.070
10420.25;2437.70;-5.060
10425.24;2437.90;-5.070
10430.22;2437.75;-5.070
10435.21;2437.55;-5.060
10440.20;2437.60;-5.060
10445.18;2437.55;-5.060
10450.16;2437.90;-5.070
10455.15;2437.65;-5.060
10460.13;2437.60;-5.060
10465.11;2437.35;-5.060
10470.10;2437.45;-5.060
10475.09;2437.30;-5.060
10480.07;2437.30;-5.060
10485.06;2437.25;-5.060
10490.04;2437.00;-5.050
10495.01;2436.75;-5.050
10500.55;2436.69;-5.050
10505.54;2436.73;-5.050
10510.52;2436.48;-5.040
10515.51;2436.23;-5.040
10520.49;2436.13;-5.040
10525.48;2435.87;-5.030
10530.46;2435.73;-5.030
10535.45;2435.45;-5.024
10540.43;2435.43;-5.020
10545.41;2435.52;-5.030
10550.40;2435.49;-5.026
10555.38;2435.35;-5.024
10560.37;2435.03;-5.020
10565.35;2434.96;-5.020
10570.34;2434.93;-5.016
10575.32;2434.78;-5.014
10580.31;2435.23;-5.020
10585.29;2435.23;-5.020
10590.28;2435.41;-5.020
10595.26;2435.41;-5.020
10600.19;2435.50;-5.030
10605.41;2435.20;-5.020
10610.38;2435.00;-5.020
10615.34;2434.99;-5.020
10620.30;2434.69;-5.010
10625.27;2434.24;-5.000
10630.21;2434.04;-5.000
10635.19;2433.65;-4.990
10640.18;2433.86;-5.000
10645.16;2433.84;-5.000
10650.15;2434.04;-5.000
10655.13;2433.75;-5.000
10660.12;2433.92;-5.000
10665.10;2433.85;-5.000
10670.09;2433.68;-4.994
10675.07;2433.51;-4.990
10680.06;2433.35;-4.990
10685.04;2433.30;-4.990
10690.02;2433.12;-4.984
10695.01;2433.24;-4.990
10700.28;2433.25;-4.990
10705.26;2432.60;-4.980
10710.24;2432.50;-4.970
10715.23;2432.05;-4.970
10720.18;2431.90;-4.960
10725.14;2431.80;-4.960
10730.13;2431.55;-4.960
10735.09;2431.40;-4.950
10740.04;2431.15;-4.950
10745.28;2431.15;-4.950
10750.24;2431.05;-4.950
10755.22;2431.25;-4.950
10760.19;2431.65;-4.960
10765.13;2431.90;-4.960
10770.12;2432.00;-4.970
10775.08;2432.30;-4.970
10780.03;2432.55;-4.970
10785.01;2432.70;-4.980
10790.00;2432.70;-4.980
