time[s];Vsg[mV];pH/ion concentration [mM]
5.59;2363.69;-3.770
10.57;2364.55;-3.780
15.56;2364.62;-3.788
20.54;2364.61;-3.782
25.53;2364.46;-3.780
30.51;2364.47;-3.780
35.49;2364.47;-3.780
40.48;2364.73;-3.790
45.47;2364.55;-3.780
50.45;2364.59;-3.780
55.44;2364.53;-3.780
60.42;2364.41;-3.780
65.41;2364.58;-3.780
70.39;2364.40;-3.780
75.38;2364.35;-3.780
80.37;2364.44;-3.780
85.35;2364.28;-3.780
90.28;2364.30;-3.780
95.26;2364.28;-3.780
100.25;2364.27;-3.780
105.24;2364.28;-3.780
110.22;2363.71;-3.766
115.21;2364.02;-3.774
120.19;2364.08;-3.774
125.18;2360.86;-3.722
130.16;2363.25;-3.762
135.15;2362.91;-3.754
140.13;2363.47;-3.764
145.12;2370.92;-3.898
150.10;2364.17;-3.778
155.09;2363.41;-3.760
160.08;2363.75;-3.768
165.06;2360.10;-3.704
170.05;2361.06;-3.724
175.03;2363.38;-3.762
180.02;2365.99;-3.808
185.00;2357.84;-3.666
190.27;2357.55;-3.660
195.26;2347.55;-3.490
200.24;2347.75;-3.490
205.23;2363.00;-3.760
210.21;2362.30;-3.740
215.18;2359.15;-3.690
220.13;2359.95;-3.700
225.12;2360.70;-3.720
230.10;2356.70;-3.650
235.09;2358.75;-3.680
240.07;2361.50;-3.730
245.06;2362.40;-3.750
250.04;2363.30;-3.760
255.03;2361.80;-3.740
260.01;2359.35;-3.690
265.28;2351.05;-3.550
270.27;2348.40;-3.500
275.25;2345.05;-3.440
280.24;2343.45;-3.410
285.22;2343.10;-3.410
290.21;2342.40;-3.400
295.20;2345.90;-3.460
300.18;2341.80;-3.390
305.17;2341.55;-3.380
310.15;2341.35;-3.380
315.14;2341.50;-3.380
320.12;2342.60;-3.400
325.07;2342.60;-3.400
330.04;2346.75;-3.470
335.02;2342.90;-3.400
340.57;2342.36;-3.394
345.54;2342.45;-3.396
350.52;2342.61;-3.396
355.51;2342.55;-3.400
360.49;2340.60;-3.360
365.48;2340.53;-3.360
370.46;2340.76;-3.370
375.45;2340.83;-3.370
380.43;2340.87;-3.370
385.42;2340.96;-3.370
390.41;2340.92;-3.370
395.39;2340.86;-3.370
400.33;2341.14;-3.370
405.30;2340.65;-3.364
410.29;2340.88;-3.370
415.28;2341.12;-3.370
420.26;2340.91;-3.370
425.25;2341.32;-3.376
430.23;2341.00;-3.370
435.22;2341.10;-3.370
440.20;2340.33;-3.356
445.19;2341.05;-3.370
450.17;2341.10;-3.370
455.16;2341.08;-3.370
460.14;2341.14;-3.370
465.13;2340.95;-3.370
470.12;2340.91;-3.370
475.05;2341.14;-3.372
480.03;2340.85;-3.370
485.02;2340.95;-3.370
490.28;2341.00;-3.370
495.27;2340.95;-3.370
500.26;2340.85;-3.370
505.24;2340.85;-3.370
510.23;2340.75;-3.370
515.21;2340.70;-3.370
520.20;2340.80;-3.370
525.18;2340.25;-3.360
530.17;2342.00;-3.390
535.15;2340.50;-3.360
540.14;2340.30;-3.360
545.12;2340.35;-3.360
550.11;2341.00;-3.370
555.09;2340.70;-3.370
560.08;2340.70;-3.370
565.07;2336.35;-3.290
570.05;2339.25;-3.340
575.04;2340.60;-3.360
580.02;2342.85;-3.400
585.01;2343.75;-3.420
590.22;2344.45;-3.430
595.21;2342.75;-3.400
600.19;2342.05;-3.390
605.18;2342.45;-3.400
610.16;2342.60;-3.400
615.15;2343.50;-3.420
620.13;2342.55;-3.400
625.12;2340.95;-3.370
630.10;2340.45;-3.360
635.09;2340.15;-3.360
640.07;2340.30;-3.360
645.06;2339.95;-3.350
650.04;2340.20;-3.360
655.03;2340.05;-3.350
660.02;2339.95;-3.350
665.60;2340.12;-3.360
670.59;2340.09;-3.354
675.57;2342.51;-3.398
680.54;2340.74;-3.368
685.49;2340.07;-3.356
690.43;2340.18;-3.360
695.04;2340.15;-3.360
700.01;2340.40;-3.360
705.60;2340.25;-3.360
710.59;2346.45;-3.470
715.57;2329.15;-3.160
720.56;2346.85;-3.470
725.54;2340.20;-3.360
730.53;2339.85;-3.350
735.51;2345.75;-3.450
740.50;2340.70;-3.370
745.48;2346.80;-3.470
750.47;2338.90;-3.330
755.45;2324.80;-3.090
760.44;2335.20;-3.270
765.42;2337.45;-3.310
770.41;2338.00;-3.320
775.39;2338.45;-3.330
780.38;2338.65;-3.330
785.36;2338.90;-3.330
790.35;2339.10;-3.340
795.33;2339.25;-3.340
800.32;2339.15;-3.340
805.31;2339.20;-3.340
810.29;2339.55;-3.350
815.28;2339.85;-3.350
820.26;2338.85;-3.330
825.25;2339.65;-3.350
830.23;2339.60;-3.350
835.22;2339.05;-3.340
840.20;2339.65;-3.350
845.19;2339.65;-3.350
850.17;2339.75;-3.350
855.16;2339.65;-3.350
860.14;2339.75;-3.350
865.13;2339.60;-3.350
870.11;2339.70;-3.350
875.10;2358.10;-3.670
880.09;2340.00;-3.350
885.07;2340.45;-3.360
890.06;2342.05;-3.390
895.04;2342.35;-3.400
900.03;2343.35;-3.410
905.01;2343.50;-3.420
910.28;2343.70;-3.420
915.27;2343.70;-3.420
920.25;2343.75;-3.420
925.24;2343.50;-3.420
930.22;2343.50;-3.420
935.21;2341.95;-3.390
940.19;2341.65;-3.380
945.18;2341.45;-3.380
950.16;2341.05;-3.370
955.09;2341.05;-3.370
960.08;2340.90;-3.370
965.06;2340.80;-3.370
970.05;2340.55;-3.360
975.03;2340.65;-3.370
980.56;2340.52;-3.360
985.55;2340.47;-3.360
990.53;2340.49;-3.360
995.20;2340.50;-3.360
1000.13;2340.40;-3.360
1005.11;2340.15;-3.360
1010.10;2340.20;-3.360
1015.08;2340.15;-3.360
1020.07;2340.15;-3.360
1025.05;2340.40;-3.360
1030.04;2340.40;-3.360
1035.03;2340.50;-3.360
1040.01;2340.05;-3.350
1045.57;2339.99;-3.350
1050.53;2339.96;-3.350
1055.47;2339.05;-3.338
1060.44;2326.80;-3.120
1065.38;2356.43;-3.642
1070.35;2349.00;-3.512
1075.34;2331.12;-3.196
1080.32;2334.38;-3.252
1085.31;2368.54;-3.856
1090.29;2336.07;-3.282
1095.28;2340.61;-3.366
1100.26;2340.15;-3.360
1105.19;2340.08;-3.352
1110.44;2339.85;-3.350
1115.39;2339.85;-3.350
1120.38;2339.85;-3.350
1125.36;2339.50;-3.340
1130.34;2339.65;-3.350
1135.33;2339.70;-3.350
1140.31;2339.70;-3.350
1145.30;2339.55;-3.350
1150.29;2339.65;-3.350
1155.27;2339.70;-3.350
1160.26;2339.65;-3.350
1165.24;2339.65;-3.350
1170.22;2339.45;-3.340
1175.21;2343.25;-3.410
1180.16;2343.29;-3.412
1185.13;2343.17;-3.410
1190.11;2342.98;-3.408
1195.09;2342.70;-3.402
1200.08;2343.16;-3.408
1205.06;2343.07;-3.410
1210.05;2343.42;-3.418
1215.04;2343.39;-3.418
1220.02;2343.27;-3.412
1225.26;2342.85;-3.400
1230.21;2342.80;-3.400
1235.20;2341.15;-3.370
1240.19;2340.75;-3.370
1245.17;2340.65;-3.370
1250.10;2340.55;-3.360
1255.09;2340.40;-3.360
1260.07;2340.40;-3.360
1265.02;2340.20;-3.360
1270.27;2340.30;-3.360
1275.26;2340.20;-3.360
1280.24;2340.05;-3.350
1285.23;2340.15;-3.360
1290.21;2339.90;-3.350
1295.19;2340.15;-3.360
1300.18;2339.80;-3.350
1305.17;2340.00;-3.350
1310.13;2339.75;-3.350
1315.08;2339.55;-3.350
1320.06;2339.55;-3.350
1325.05;2339.60;-3.350
1330.04;2339.55;-3.350
1335.02;2339.20;-3.340
1340.01;2339.45;-3.340
1345.59;2339.26;-3.340
1350.57;2339.19;-3.340
1355.51;2339.12;-3.340
1360.49;2339.11;-3.340
1365.42;2339.15;-3.340
1370.07;2339.05;-3.340
1375.01;2339.10;-3.340
1380.60;2339.05;-3.340
1385.59;2338.90;-3.330
1390.57;2338.75;-3.330
1395.56;2338.85;-3.330
1400.54;2338.65;-3.330
1405.53;2339.00;-3.340
1410.51;2338.70;-3.330
1415.50;2338.70;-3.330
1420.48;2338.85;-3.330
1425.41;2338.65;-3.330
1430.40;2338.59;-3.330
1435.38;2338.62;-3.330
1440.36;2336.97;-3.302
1445.34;2338.60;-3.330
1450.32;2338.61;-3.330
1455.31;2338.33;-3.322
1460.31;2338.44;-3.330
1465.24;2338.73;-3.330
1470.21;2338.51;-3.330
1475.19;2338.44;-3.326
1480.19;2338.34;-3.324
1485.13;2338.10;-3.320
1490.09;2338.21;-3.320
1495.09;2338.43;-3.330
1500.08;2338.33;-3.320
1505.06;2338.38;-3.326
1510.05;2341.51;-3.376
1515.04;2337.92;-3.320
1520.02;2334.07;-3.248
1525.25;2339.60;-3.350
1530.22;2336.80;-3.300
1535.19;2333.05;-3.230
1540.19;2337.80;-3.320
1545.18;2337.85;-3.320
1550.16;2337.40;-3.310
1555.14;2338.35;-3.320
1560.13;2339.15;-3.340
1565.11;2340.90;-3.370
1570.10;2341.00;-3.370
1575.08;2341.25;-3.380
1580.07;2341.50;-3.380
1585.28;2341.35;-3.380
1590.22;2341.45;-3.380
1595.19;2341.45;-3.380
1600.15;2341.60;-3.380
1605.11;2341.20;-3.370
1610.08;2339.75;-3.350
1615.08;2339.25;-3.340
1620.06;2339.30;-3.340
1625.05;2339.25;-3.340
1630.03;2339.15;-3.340
1635.27;2338.95;-3.340
1640.22;2338.15;-3.320
1645.21;2340.05;-3.350
1650.20;2337.90;-3.320
1655.19;2338.90;-3.330
1660.17;2339.30;-3.340
1665.16;2338.50;-3.330
1670.14;2338.35;-3.320
1675.13;2338.55;-3.330
1680.11;2338.40;-3.330
1685.09;2338.35;-3.320
1690.08;2338.35;-3.320
1695.06;2339.10;-3.340
1700.04;2338.50;-3.330
1705.03;2338.25;-3.320
1710.56;2338.30;-3.320
1715.55;2338.14;-3.320
1720.53;2337.91;-3.320
1725.51;2337.95;-3.320
1730.51;2337.94;-3.320
1735.49;2338.14;-3.320
1740.48;2338.29;-3.328
1745.46;2338.23;-3.320
1750.44;2337.99;-3.320
1755.43;2337.83;-3.320
1760.41;2338.32;-3.324
1765.39;2337.76;-3.312
1770.39;2337.72;-3.312
1775.38;2337.77;-3.312
1780.36;2337.78;-3.318
1785.34;2337.57;-3.310
1790.33;2337.79;-3.312
1795.26;2337.59;-3.310
1800.23;2337.85;-3.320
1805.23;2337.78;-3.316
1810.20;2337.62;-3.310
1815.17;2337.45;-3.310
1820.12;2337.67;-3.310
1825.10;2337.72;-3.310
1830.09;2337.46;-3.310
1835.07;2337.46;-3.310
1840.07;2337.58;-3.310
1845.05;2337.38;-3.310
1850.04;2337.53;-3.314
1855.03;2337.33;-3.310
1860.01;2340.55;-3.362
1865.28;2326.55;-3.120
1870.26;2315.60;-2.930
1875.25;2330.20;-3.180
1880.23;2333.95;-3.250
1885.22;2334.90;-3.260
1890.20;2331.20;-3.200
1895.19;2334.10;-3.250
1900.18;2336.70;-3.300
1905.16;2338.55;-3.330
1910.15;2339.40;-3.340
1915.13;2338.95;-3.340
1920.11;2340.15;-3.360
1925.07;2339.40;-3.340
1930.03;2340.05;-3.350
1935.01;2340.00;-3.350
1940.26;2340.10;-3.360
1945.21;2339.50;-3.340
1950.20;2338.35;-3.320
1955.18;2338.10;-3.320
1960.17;2338.00;-3.320
1965.15;2337.75;-3.310
1970.12;2337.55;-3.310
1975.07;2337.40;-3.310
1980.05;2337.60;-3.310
1985.02;2337.50;-3.310
1990.02;2337.30;-3.310
1995.00;2337.35;-3.310
2000.58;2337.28;-3.310
2005.57;2337.18;-3.304
2010.56;2337.08;-3.300
2015.55;2337.12;-3.304
2020.53;2337.04;-3.300
2025.51;2337.13;-3.300
2030.50;2337.07;-3.300
2035.49;2336.90;-3.300
2040.47;2337.09;-3.306
2045.45;2337.02;-3.300
2050.43;2337.01;-3.300
2055.37;2337.02;-3.300
2060.36;2336.95;-3.300
2065.35;2336.98;-3.300
2070.32;2336.98;-3.300
2075.31;2336.86;-3.300
2080.29;2336.86;-3.300
2085.27;2336.80;-3.300
2090.27;2336.51;-3.292
2095.26;2336.65;-3.290
2100.24;2336.65;-3.290
2105.23;2336.62;-3.290
2110.21;2336.65;-3.290
2115.20;2336.51;-3.290
2120.18;2336.56;-3.290
2125.17;2336.73;-3.298
2130.15;2336.66;-3.292
2135.14;2336.56;-3.290
2140.12;2336.28;-3.290
2145.11;2336.61;-3.290
2150.09;2336.76;-3.300
2155.08;2336.50;-3.292
2160.06;2336.56;-3.290
2165.05;2336.73;-3.294
2170.03;2336.40;-3.292
2175.02;2336.42;-3.290
2180.00;2336.30;-3.290
2185.27;2336.30;-3.290
2190.26;2314.75;-2.910
2195.24;2334.10;-3.250
2200.23;2318.45;-2.980
2205.21;2330.50;-3.190
2210.19;2333.20;-3.230
2215.18;2334.10;-3.250
2220.17;2334.70;-3.260
2225.15;2332.05;-3.210
2230.14;2335.10;-3.270
2235.09;2336.20;-3.290
2240.04;2337.85;-3.312
2245.26;2338.65;-3.330
2250.25;2338.25;-3.320
2255.19;2338.50;-3.330
2260.16;2338.80;-3.330
2265.15;2339.05;-3.340
2270.14;2339.05;-3.340
2275.12;2339.15;-3.340
2280.11;2338.90;-3.330
2285.08;2337.45;-3.310
2290.07;2337.30;-3.310
2295.01;2337.30;-3.310
2300.21;2336.05;-3.280
2305.20;2336.70;-3.300
2310.19;2336.80;-3.300
2315.17;2336.90;-3.300
2320.15;2336.85;-3.300
2325.14;2336.85;-3.300
2330.12;2336.55;-3.290
2335.11;2336.80;-3.300
2340.09;2336.75;-3.300
2345.07;2336.80;-3.300
2350.05;2336.80;-3.300
2355.59;2336.64;-3.294
2360.57;2336.69;-3.296
2365.56;2336.75;-3.300
2370.54;2336.71;-3.296
2375.53;2336.62;-3.296
2380.51;2336.53;-3.290
2385.50;2336.52;-3.290
2390.49;2336.52;-3.290
2395.47;2336.51;-3.290
2400.46;2336.44;-3.290
2405.44;2336.43;-3.290
2410.38;2336.26;-3.290
2415.35;2336.38;-3.290
2420.28;2336.32;-3.290
2425.26;2336.32;-3.290
2430.26;2336.54;-3.290
2435.23;2336.48;-3.290
2440.23;2336.37;-3.290
2445.20;2336.31;-3.290
2450.20;2336.22;-3.290
2455.18;2336.16;-3.290
2460.17;2336.23;-3.290
2465.15;2336.30;-3.290
2470.13;2336.38;-3.290
2475.12;2336.46;-3.290
2480.33;2336.35;-3.290
2485.32;2334.70;-3.260
2490.30;2334.50;-3.260
2495.28;2336.15;-3.290
2500.28;2336.00;-3.280
2505.26;2336.30;-3.290
2510.24;2336.05;-3.280
2515.23;2336.20;-3.290
2520.22;2336.05;-3.280
2525.20;2336.20;-3.290
2530.18;2335.95;-3.280
2535.16;2335.95;-3.280
2540.16;2336.00;-3.280
2545.15;2336.20;-3.290
2550.04;2258.24;-1.920
2555.01;2323.54;-3.062
2560.27;2321.50;-3.030
2565.26;2329.85;-3.180
2570.25;2332.95;-3.230
2575.18;2331.75;-3.210
2580.16;2333.90;-3.250
2585.14;2335.30;-3.270
2590.13;2336.80;-3.300
2595.11;2337.15;-3.300
2600.10;2337.25;-3.310
2605.08;2337.75;-3.310
2610.01;2338.15;-3.320
2615.28;2338.00;-3.320
2620.27;2338.15;-3.320
2625.25;2338.40;-3.330
2630.24;2338.15;-3.320
2635.21;2336.85;-3.300
2640.20;2336.45;-3.290
2645.18;2336.50;-3.290
2650.12;2336.45;-3.290
2655.07;2336.40;-3.290
2660.02;2334.60;-3.260
2665.02;2335.95;-3.280
2670.01;2336.20;-3.290
2675.58;2336.32;-3.290
2680.57;2336.13;-3.290
2685.55;2336.05;-3.280
2690.55;2336.11;-3.286
2695.54;2336.00;-3.284
2700.52;2336.47;-3.290
2705.50;2335.63;-3.278
2710.49;2336.05;-3.284
2715.47;2336.11;-3.286
2720.45;2336.04;-3.284
2725.44;2336.14;-3.290
2730.44;2336.11;-3.286
2735.42;2335.99;-3.280
2740.40;2336.17;-3.290
2745.38;2336.24;-3.290
2750.37;2336.12;-3.286
2755.35;2336.15;-3.286
2760.31;2336.15;-3.290
2765.26;2336.10;-3.290
2770.25;2336.45;-3.290
2775.25;2336.12;-3.290
2780.23;2336.01;-3.282
2785.22;2336.29;-3.288
2790.20;2335.92;-3.282
2795.41;2336.15;-3.290
2800.39;2336.20;-3.290
2805.39;2335.75;-3.280
2810.37;2336.05;-3.280
2815.35;2336.15;-3.290
2820.34;2336.15;-3.290
2825.32;2335.95;-3.280
2830.30;2336.10;-3.290
2835.29;2336.10;-3.290
2840.29;2336.60;-3.290
2845.27;2336.20;-3.290
2850.25;2335.95;-3.280
2855.24;2335.95;-3.280
2860.22;2335.90;-3.280
2865.21;2336.10;-3.290
2870.20;2336.00;-3.280
2875.19;2335.90;-3.280
2880.17;2336.30;-3.290
2885.16;2338.65;-3.330
2890.13;2076.25;1.260
2895.07;2326.48;-3.120
2900.06;2327.92;-3.142
2905.03;2323.85;-3.070
2910.01;2332.56;-3.220
2915.01;2333.28;-3.238
2920.28;2333.90;-3.250
2925.27;2331.00;-3.200
2930.20;2333.60;-3.240
2935.18;2335.45;-3.270
2940.17;2337.00;-3.300
2945.15;2337.45;-3.310
2950.14;2337.70;-3.310
2955.07;2337.85;-3.320
2960.05;2338.30;-3.320
2965.04;2338.30;-3.320
2970.02;2338.25;-3.320
2975.01;2338.40;-3.330
2980.28;2338.30;-3.320
2985.25;2336.95;-3.300
2990.24;2336.85;-3.300
2995.23;2336.80;-3.300
3000.22;2336.75;-3.300
3005.21;2336.70;-3.300
3010.15;2336.55;-3.290
3015.12;2336.50;-3.290
3020.10;2336.50;-3.290
3025.09;2336.75;-3.300
3030.08;2336.55;-3.290
3035.06;2336.55;-3.290
3040.04;2336.45;-3.290
3045.02;2336.55;-3.290
3050.02;2336.70;-3.300
3055.01;2336.70;-3.300
3060.59;2336.57;-3.290
3065.58;2336.68;-3.298
3070.56;2336.59;-3.290
3075.55;2336.82;-3.300
3080.52;2336.61;-3.290
3085.51;2336.55;-3.290
3090.49;2336.58;-3.292
3095.48;2336.68;-3.298
3100.46;2336.56;-3.290
3105.45;2336.61;-3.290
3110.44;2336.56;-3.292
3115.38;2336.61;-3.294
3120.36;2336.65;-3.290
3125.34;2336.65;-3.290
3130.27;2336.59;-3.290
3135.24;2336.82;-3.300
3140.18;2336.55;-3.290
3145.17;2336.61;-3.290
3150.16;2336.40;-3.290
3155.14;2336.66;-3.292
3160.12;2336.60;-3.292
3165.11;2336.54;-3.292
3170.09;2336.71;-3.298
3175.08;2336.62;-3.292
3180.31;2336.60;-3.290
3185.24;2336.71;-3.300
3190.21;2336.61;-3.292
3195.20;2336.61;-3.290
3200.18;2336.70;-3.300
3205.15;2336.73;-3.294
3210.10;2336.52;-3.290
3215.08;2336.82;-3.300
3220.07;2336.79;-3.300
3225.05;2336.67;-3.294
3230.04;2336.77;-3.300
3235.02;2336.75;-3.300
3240.24;2336.50;-3.290
3245.22;2336.65;-3.290
3250.21;2336.60;-3.290
3255.17;2336.70;-3.300
3260.12;2336.80;-3.300
3265.11;2337.45;-3.310
3270.09;2335.70;-3.280
3275.08;2336.40;-3.290
3280.06;2335.80;-3.280
3285.05;2336.65;-3.290
3290.03;2336.45;-3.290
3295.19;2325.35;-3.100
3300.18;2331.75;-3.210
3305.16;2334.75;-3.260
3310.15;2336.90;-3.300
3315.14;2336.65;-3.290
3320.12;2337.50;-3.310
3325.11;2337.90;-3.320
3330.09;2338.10;-3.320
3335.08;2338.75;-3.330
3340.07;2338.55;-3.330
3345.01;2338.50;-3.330
3350.58;2338.66;-3.330
3355.57;2337.78;-3.318
3360.55;2337.26;-3.310
3365.54;2337.35;-3.310
3370.52;2337.44;-3.310
3375.51;2337.28;-3.308
3380.49;2337.36;-3.310
3385.48;2337.34;-3.310
3390.47;2337.31;-3.308
3395.45;2337.48;-3.310
3400.44;2337.49;-3.310
3405.42;2337.59;-3.310
3410.41;2337.28;-3.310
3415.39;2337.55;-3.310
3420.38;2337.38;-3.308
3425.36;2337.40;-3.310
3430.35;2337.65;-3.310
3435.34;2337.38;-3.310
3440.32;2337.51;-3.310
3445.31;2337.15;-3.300
3450.29;2337.27;-3.308
3455.28;2337.44;-3.308
3460.26;2337.51;-3.308
3465.25;2337.32;-3.308
3470.24;2337.29;-3.308
3475.22;2337.19;-3.300
3480.21;2337.06;-3.300
3485.19;2337.28;-3.308
3490.18;2337.42;-3.310
3495.16;2337.32;-3.308
3500.15;2337.11;-3.300
3505.13;2337.11;-3.300
3510.12;2337.30;-3.310
3515.10;2337.20;-3.300
3520.09;2336.71;-3.292
3525.07;2337.16;-3.300
3530.31;2337.15;-3.300
3535.27;2337.15;-3.300
3540.26;2337.00;-3.300
3545.24;2337.05;-3.300
3550.23;2336.85;-3.300
3555.21;2337.00;-3.300
3560.20;2337.05;-3.300
3565.19;2336.95;-3.300
3570.17;2336.95;-3.300
3575.15;2337.05;-3.300
3580.10;2336.91;-3.300
3585.07;2338.88;-3.330
3590.05;2335.82;-3.282
3595.28;2336.70;-3.300
3600.25;2335.55;-3.280
3605.24;2327.05;-3.130
3610.22;2328.45;-3.150
3615.21;2334.00;-3.250
3620.15;2334.60;-3.260
3625.12;2335.25;-3.270
3630.10;2332.30;-3.220
3635.09;2334.85;-3.260
3640.08;2336.40;-3.290
3645.06;2337.80;-3.320
3650.28;2337.85;-3.320
3655.26;2338.05;-3.320
3660.25;2338.35;-3.320
3665.23;2338.65;-3.330
3670.22;2338.55;-3.330
3675.21;2338.85;-3.330
3680.17;2338.95;-3.340
3685.12;2338.70;-3.330
3690.11;2337.90;-3.320
3695.09;2337.80;-3.320
3700.08;2337.55;-3.310
3705.06;2337.40;-3.310
3710.59;2337.33;-3.310
3715.52;2337.40;-3.310
3720.14;2337.20;-3.300
3725.12;2337.30;-3.310
3730.10;2337.20;-3.300
3735.09;2337.20;-3.300
3740.07;2337.20;-3.300
3745.06;2337.30;-3.310
3750.04;2337.35;-3.310
3755.03;2337.20;-3.300
3760.01;2337.10;-3.300
3765.60;2337.25;-3.310
3770.56;2336.99;-3.300
3775.52;2337.36;-3.308
3780.45;2337.16;-3.304
3785.38;2337.13;-3.300
3790.34;2337.11;-3.300
3795.29;2337.04;-3.300
3800.28;2337.23;-3.306
3805.26;2336.96;-3.300
3810.25;2336.99;-3.300
3815.23;2336.64;-3.292
3820.22;2337.10;-3.300
3825.20;2336.81;-3.300
3830.41;2337.10;-3.300
3835.40;2337.25;-3.310
3840.36;2336.98;-3.300
3845.31;2335.42;-3.276
3850.28;2337.16;-3.306
3855.23;2336.97;-3.300
3860.22;2337.22;-3.310
3865.20;2337.03;-3.300
3870.19;2337.04;-3.300
3875.17;2336.93;-3.300
3880.16;2337.23;-3.310
3885.14;2337.16;-3.304
3890.13;2337.17;-3.304
3895.12;2337.29;-3.310
3900.10;2337.72;-3.316
3905.09;2337.29;-3.310
3910.07;2337.17;-3.304
3915.06;2337.15;-3.304
3920.04;2337.23;-3.310
3925.03;2337.08;-3.300
3930.02;2337.27;-3.310
3935.00;2337.23;-3.304
3940.27;2337.25;-3.310
